"PHT06S13.SPC"
WL/nm,Abs
900.0,0.145
899.5,0.145
899.0,0.145
898.5,0.145
898.0,0.145
897.5,0.145
897.0,0.145
896.5,0.145
896.0,0.145
895.5,0.145
895.0,0.145
894.5,0.146
894.0,0.146
893.5,0.146
893.0,0.145
892.5,0.145
892.0,0.145
891.5,0.145
891.0,0.145
890.5,0.144
890.0,0.144
889.5,0.144
889.0,0.144
888.5,0.144
888.0,0.144
887.5,0.144
887.0,0.145
886.5,0.145
886.0,0.146
885.5,0.146
885.0,0.147
884.5,0.147
884.0,0.147
883.5,0.148
883.0,0.148
882.5,0.148
882.0,0.149
881.5,0.149
881.0,0.149
880.5,0.149
880.0,0.149
879.5,0.150
879.0,0.150
878.5,0.150
878.0,0.150
877.5,0.150
877.0,0.150
876.5,0.151
876.0,0.151
875.5,0.151
875.0,0.150
874.5,0.150
874.0,0.150
873.5,0.150
873.0,0.150
872.5,0.149
872.0,0.149
871.5,0.149
871.0,0.148
870.5,0.148
870.0,0.148
869.5,0.148
869.0,0.147
868.5,0.147
868.0,0.147
867.5,0.147
867.0,0.146
866.5,0.146
866.0,0.146
865.5,0.146
865.0,0.146
864.5,0.145
864.0,0.145
863.5,0.145
863.0,0.145
862.5,0.145
862.0,0.145
861.5,0.145
861.0,0.145
860.5,0.145
860.0,0.145
859.5,0.145
859.0,0.145
858.5,0.145
858.0,0.145
857.5,0.145
857.0,0.145
856.5,0.145
856.0,0.145
855.5,0.145
855.0,0.145
854.5,0.145
854.0,0.145
853.5,0.145
853.0,0.145
852.5,0.145
852.0,0.145
851.5,0.145
851.0,0.145
850.5,0.145
850.0,0.145
849.5,0.145
849.0,0.145
848.5,0.145
848.0,0.145
847.5,0.145
847.0,0.145
846.5,0.145
846.0,0.145
845.5,0.145
845.0,0.145
844.5,0.145
844.0,0.145
843.5,0.145
843.0,0.145
842.5,0.145
842.0,0.145
841.5,0.145
841.0,0.146
840.5,0.146
840.0,0.146
839.5,0.146
839.0,0.146
838.5,0.146
838.0,0.146
837.5,0.146
837.0,0.146
836.5,0.146
836.0,0.146
835.5,0.146
835.0,0.146
834.5,0.146
834.0,0.146
833.5,0.146
833.0,0.146
832.5,0.146
832.0,0.145
831.5,0.145
831.0,0.145
830.5,0.145
830.0,0.145
829.5,0.145
829.0,0.145
828.5,0.145
828.0,0.145
827.5,0.144
827.0,0.144
826.5,0.144
826.0,0.144
825.5,0.144
825.0,0.144
824.5,0.144
824.0,0.144
823.5,0.144
823.0,0.144
822.5,0.144
822.0,0.144
821.5,0.144
821.0,0.144
820.5,0.144
820.0,0.144
819.5,0.144
819.0,0.144
818.5,0.144
818.0,0.144
817.5,0.145
817.0,0.145
816.5,0.145
816.0,0.145
815.5,0.145
815.0,0.145
814.5,0.145
814.0,0.145
813.5,0.145
813.0,0.146
812.5,0.146
812.0,0.146
811.5,0.146
811.0,0.146
810.5,0.146
810.0,0.146
809.5,0.146
809.0,0.147
808.5,0.147
808.0,0.147
807.5,0.147
807.0,0.147
806.5,0.147
806.0,0.148
805.5,0.148
805.0,0.148
804.5,0.148
804.0,0.148
803.5,0.148
803.0,0.149
802.5,0.149
802.0,0.149
801.5,0.149
801.0,0.149
800.5,0.149
800.0,0.150
799.5,0.150
799.0,0.150
798.5,0.150
798.0,0.150
797.5,0.151
797.0,0.151
796.5,0.151
796.0,0.151
795.5,0.151
795.0,0.152
794.5,0.152
794.0,0.152
793.5,0.152
793.0,0.153
792.5,0.153
792.0,0.153
791.5,0.153
791.0,0.153
790.5,0.154
790.0,0.154
789.5,0.154
789.0,0.154
788.5,0.154
788.0,0.155
787.5,0.155
787.0,0.155
786.5,0.155
786.0,0.156
785.5,0.156
785.0,0.156
784.5,0.156
784.0,0.157
783.5,0.157
783.0,0.157
782.5,0.157
782.0,0.157
781.5,0.158
781.0,0.158
780.5,0.158
780.0,0.159
779.5,0.159
779.0,0.159
778.5,0.159
778.0,0.160
777.5,0.160
777.0,0.160
776.5,0.161
776.0,0.161
775.5,0.161
775.0,0.161
774.5,0.161
774.0,0.162
773.5,0.162
773.0,0.162
772.5,0.162
772.0,0.163
771.5,0.163
771.0,0.163
770.5,0.163
770.0,0.164
769.5,0.164
769.0,0.164
768.5,0.164
768.0,0.165
767.5,0.165
767.0,0.166
766.5,0.166
766.0,0.166
765.5,0.166
765.0,0.167
764.5,0.167
764.0,0.167
763.5,0.168
763.0,0.168
762.5,0.168
762.0,0.169
761.5,0.169
761.0,0.169
760.5,0.169
760.0,0.169
759.5,0.170
759.0,0.171
758.5,0.171
758.0,0.171
757.5,0.172
757.0,0.172
756.5,0.173
756.0,0.173
755.5,0.173
755.0,0.174
754.5,0.174
754.0,0.175
753.5,0.175
753.0,0.176
752.5,0.176
752.0,0.177
751.5,0.177
751.0,0.177
750.5,0.178
750.0,0.178
749.5,0.178
749.0,0.179
748.5,0.180
748.0,0.180
747.5,0.181
747.0,0.181
746.5,0.182
746.0,0.182
745.5,0.183
745.0,0.183
744.5,0.184
744.0,0.184
743.5,0.185
743.0,0.186
742.5,0.186
742.0,0.187
741.5,0.188
741.0,0.189
740.5,0.189
740.0,0.190
739.5,0.191
739.0,0.191
738.5,0.192
738.0,0.193
737.5,0.193
737.0,0.194
736.5,0.195
736.0,0.196
735.5,0.197
735.0,0.198
734.5,0.198
734.0,0.199
733.5,0.200
733.0,0.201
732.5,0.202
732.0,0.203
731.5,0.204
731.0,0.205
730.5,0.206
730.0,0.207
729.5,0.208
729.0,0.209
728.5,0.211
728.0,0.212
727.5,0.213
727.0,0.214
726.5,0.216
726.0,0.218
725.5,0.219
725.0,0.221
724.5,0.222
724.0,0.224
723.5,0.226
723.0,0.228
722.5,0.230
722.0,0.232
721.5,0.234
721.0,0.236
720.5,0.238
720.0,0.241
719.5,0.243
719.0,0.246
718.5,0.249
718.0,0.251
717.5,0.254
717.0,0.257
716.5,0.260
716.0,0.263
715.5,0.266
715.0,0.270
714.5,0.273
714.0,0.277
713.5,0.281
713.0,0.285
712.5,0.289
712.0,0.293
711.5,0.297
711.0,0.301
710.5,0.306
710.0,0.310
709.5,0.315
709.0,0.321
708.5,0.326
708.0,0.333
707.5,0.339
707.0,0.345
706.5,0.351
706.0,0.357
705.5,0.364
705.0,0.371
704.5,0.378
704.0,0.385
703.5,0.393
703.0,0.401
702.5,0.409
702.0,0.417
701.5,0.426
701.0,0.434
700.5,0.444
700.0,0.454
699.5,0.464
699.0,0.474
698.5,0.485
698.0,0.497
697.5,0.508
697.0,0.520
696.5,0.532
696.0,0.545
695.5,0.558
695.0,0.571
694.5,0.585
694.0,0.599
693.5,0.614
693.0,0.629
692.5,0.645
692.0,0.661
691.5,0.678
691.0,0.696
690.5,0.714
690.0,0.733
689.5,0.752
689.0,0.772
688.5,0.793
688.0,0.814
687.5,0.837
687.0,0.859
686.5,0.883
686.0,0.908
685.5,0.934
685.0,0.960
684.5,0.986
684.0,1.013
683.5,1.041
683.0,1.069
682.5,1.099
682.0,1.129
681.5,1.160
681.0,1.192
680.5,1.225
680.0,1.259
679.5,1.294
679.0,1.329
678.5,1.365
678.0,1.403
677.5,1.440
677.0,1.478
676.5,1.516
676.0,1.555
675.5,1.594
675.0,1.633
674.5,1.673
674.0,1.714
673.5,1.755
673.0,1.796
672.5,1.838
672.0,1.880
671.5,1.923
671.0,1.967
670.5,2.009
670.0,2.049
669.5,2.089
669.0,2.127
668.5,2.164
668.0,2.200
667.5,2.233
667.0,2.264
666.5,2.293
666.0,2.319
665.5,2.343
665.0,2.366
664.5,2.385
664.0,2.403
663.5,2.418
663.0,2.431
662.5,2.443
662.0,2.453
661.5,2.462
661.0,2.470
660.5,2.477
660.0,2.483
659.5,2.488
659.0,2.492
658.5,2.495
658.0,2.498
657.5,2.500
657.0,2.502
656.5,2.504
656.0,2.505
655.5,2.507
655.0,2.507
654.5,2.508
654.0,2.509
653.5,2.509
653.0,2.510
652.5,2.510
652.0,2.511
651.5,2.511
651.0,2.511
650.5,2.496
650.0,2.471
649.5,2.448
649.0,2.448
648.5,2.447
648.0,2.446
647.5,2.444
647.0,2.442
646.5,2.439
646.0,2.436
645.5,2.432
645.0,2.427
644.5,2.422
644.0,2.417
643.5,2.411
643.0,2.405
642.5,2.398
642.0,2.392
641.5,2.385
641.0,2.378
640.5,2.372
640.0,2.366
639.5,2.360
639.0,2.355
638.5,2.350
638.0,2.346
637.5,2.343
637.0,2.342
636.5,2.341
636.0,2.340
635.5,2.340
635.0,2.341
634.5,2.343
634.0,2.345
633.5,2.347
633.0,2.349
632.5,2.351
632.0,2.353
631.5,2.355
631.0,2.357
630.5,2.358
630.0,2.359
629.5,2.360
629.0,2.360
628.5,2.361
628.0,2.361
627.5,2.361
627.0,2.360
626.5,2.360
626.0,2.359
625.5,2.358
625.0,2.358
624.5,2.357
624.0,2.357
623.5,2.356
623.0,2.355
622.5,2.354
622.0,2.354
621.5,2.353
621.0,2.352
620.5,2.351
620.0,2.351
619.5,2.350
619.0,2.349
618.5,2.348
618.0,2.347
617.5,2.346
617.0,2.345
616.5,2.344
616.0,2.343
615.5,2.342
615.0,2.342
614.5,2.341
614.0,2.340
613.5,2.339
613.0,2.338
612.5,2.337
612.0,2.335
611.5,2.334
611.0,2.333
610.5,2.332
610.0,2.332
609.5,2.330
609.0,2.330
608.5,2.329
608.0,2.328
607.5,2.326
607.0,2.325
606.5,2.324
606.0,2.323
605.5,2.322
605.0,2.321
604.5,2.319
604.0,2.318
603.5,2.317
603.0,2.316
602.5,2.315
602.0,2.313
601.5,2.312
601.0,2.310
600.5,2.309
600.0,2.309
599.5,2.308
599.0,2.306
598.5,2.305
598.0,2.304
597.5,2.303
597.0,2.302
596.5,2.300
596.0,2.299
595.5,2.297
595.0,2.296
594.5,2.295
594.0,2.293
593.5,2.292
593.0,2.291
592.5,2.290
592.0,2.289
591.5,2.287
591.0,2.286
590.5,2.284
590.0,2.283
589.5,2.282
589.0,2.281
588.5,2.279
588.0,2.278
587.5,2.276
587.0,2.275
586.5,2.274
586.0,2.272
585.5,2.271
585.0,2.270
584.5,2.268
584.0,2.267
583.5,2.266
583.0,2.264
582.5,2.263
582.0,2.262
581.5,2.260
581.0,2.259
580.5,2.257
580.0,2.256
579.5,2.254
579.0,2.253
578.5,2.251
578.0,2.250
577.5,2.248
577.0,2.247
576.5,2.245
576.0,2.244
575.5,2.242
575.0,2.241
574.5,2.239
574.0,2.237
573.5,2.236
573.0,2.234
572.5,2.233
572.0,2.231
571.5,2.230
571.0,2.228
570.5,2.227
570.0,2.225
569.5,2.223
569.0,2.221
568.5,2.220
568.0,2.218
567.5,2.217
567.0,2.215
566.5,2.214
566.0,2.212
565.5,2.210
565.0,2.208
564.5,2.207
564.0,2.205
563.5,2.204
563.0,2.202
562.5,2.201
562.0,2.199
561.5,2.197
561.0,2.195
560.5,2.194
560.0,2.192
559.5,2.190
559.0,2.189
558.5,2.187
558.0,2.185
557.5,2.183
557.0,2.182
556.5,2.180
556.0,2.178
555.5,2.176
555.0,2.174
554.5,2.172
554.0,2.171
553.5,2.169
553.0,2.167
552.5,2.165
552.0,2.163
551.5,2.162
551.0,2.160
550.5,2.158
550.0,2.155
549.5,2.154
549.0,2.151
548.5,2.149
548.0,2.147
547.5,2.145
547.0,2.142
546.5,2.140
546.0,2.138
545.5,2.135
545.0,2.133
544.5,2.131
544.0,2.128
543.5,2.125
543.0,2.122
542.5,2.120
542.0,2.117
541.5,2.114
541.0,2.111
540.5,2.108
540.0,2.104
539.5,2.101
539.0,2.097
538.5,2.093
538.0,2.089
537.5,2.085
537.0,2.081
536.5,2.243
536.0,2.660
535.5,3.079
535.0,3.124
534.5,3.121
534.0,3.122
533.5,3.118
533.0,3.117
532.5,3.114
532.0,3.115
531.5,3.122
531.0,3.123
530.5,3.118
530.0,3.115
529.5,3.124
529.0,3.151
528.5,3.174
528.0,3.175
527.5,3.172
527.0,3.171
526.5,3.175
526.0,3.174
525.5,3.171
525.0,3.168
524.5,3.171
524.0,3.177
523.5,3.172
523.0,3.171
522.5,3.165
522.0,3.166
521.5,3.171
521.0,3.171
520.5,3.168
520.0,3.166
519.5,3.165
519.0,3.166
518.5,3.165
518.0,3.167
517.5,3.167
517.0,3.166
516.5,3.165
516.0,3.162
515.5,3.165
515.0,3.162
514.5,3.163
514.0,3.164
513.5,3.166
513.0,3.168
512.5,3.169
512.0,3.168
511.5,3.169
511.0,3.165
510.5,3.163
510.0,3.161
509.5,3.165
509.0,3.165
508.5,3.165
508.0,3.172
507.5,3.169
507.0,3.169
506.5,3.168
506.0,3.171
505.5,3.174
505.0,3.170
504.5,3.172
504.0,3.171
503.5,3.170
503.0,3.166
502.5,3.164
502.0,3.171
501.5,3.163
501.0,3.165
500.5,3.163
500.0,3.168
499.5,3.167
499.0,3.161
498.5,3.161
498.0,3.158
497.5,3.159
497.0,3.164
496.5,3.160
496.0,3.162
495.5,3.156
495.0,3.153
494.5,3.155
494.0,3.155
493.5,3.159
493.0,3.159
492.5,3.161
492.0,3.156
491.5,3.154
491.0,3.153
490.5,3.153
490.0,3.152
489.5,3.152
489.0,3.156
488.5,3.159
488.0,3.154
487.5,3.153
487.0,3.151
486.5,3.148
486.0,3.151
485.5,3.149
485.0,3.153
484.5,3.148
484.0,3.148
483.5,3.145
483.0,3.139
482.5,3.138
482.0,3.135
481.5,3.136
481.0,3.135
480.5,3.136
480.0,3.139
479.5,3.134
479.0,3.134
478.5,3.133
478.0,3.130
477.5,3.129
477.0,3.120
476.5,3.118
476.0,3.117
475.5,3.116
475.0,3.112
474.5,3.109
474.0,3.110
473.5,3.109
473.0,3.107
472.5,3.105
472.0,3.105
471.5,3.112
471.0,3.105
470.5,3.096
470.0,3.091
469.5,3.091
469.0,3.095
468.5,3.095
468.0,3.090
467.5,3.084
467.0,3.078
466.5,3.079
466.0,3.076
465.5,3.072
465.0,3.070
464.5,3.065
464.0,3.060
463.5,3.050
463.0,3.046
462.5,3.041
462.0,3.038
461.5,3.035
461.0,3.026
460.5,3.020
460.0,3.010
459.5,3.000
459.0,2.999
458.5,2.994
458.0,2.989
457.5,2.986
457.0,2.981
456.5,2.982
456.0,2.979
455.5,2.979
455.0,2.978
454.5,2.974
454.0,2.977
453.5,2.971
453.0,2.975
452.5,2.977
452.0,2.982
451.5,2.984
451.0,2.981
450.5,2.988
450.0,2.997
449.5,3.001
449.0,2.997
448.5,3.002
448.0,3.015
447.5,3.017
447.0,3.021
446.5,3.029
446.0,3.029
445.5,3.034
445.0,3.031
444.5,3.032
444.0,3.039
443.5,3.047
443.0,3.058
442.5,3.057
442.0,3.061
441.5,3.058
441.0,3.057
440.5,3.063
440.0,3.063
439.5,3.057
439.0,3.054
438.5,3.051
438.0,3.047
437.5,3.040
437.0,3.037
436.5,3.035
436.0,3.032
435.5,3.025
435.0,3.016
434.5,3.015
434.0,3.009
433.5,3.001
433.0,2.995
432.5,2.993
432.0,2.990
431.5,2.977
431.0,2.974
430.5,2.970
430.0,2.965
429.5,2.958
429.0,2.949
428.5,2.948
428.0,2.942
427.5,2.940
427.0,2.934
426.5,2.931
426.0,2.926
425.5,2.915
425.0,2.916
424.5,2.909
424.0,2.907
423.5,2.899
423.0,2.894
422.5,2.890
422.0,2.883
421.5,2.878
421.0,2.869
420.5,2.867
420.0,2.861
419.5,2.857
419.0,2.854
418.5,2.846
418.0,2.839
417.5,2.834
417.0,2.833
416.5,2.928
416.0,3.175
415.5,3.404
415.0,3.432
414.5,3.456
414.0,3.428
413.5,3.448
413.0,3.462
412.5,3.455
412.0,3.466
411.5,3.431
411.0,3.439
410.5,3.435
410.0,3.446
409.5,3.491
409.0,3.480
408.5,3.491
408.0,3.407
407.5,3.450
407.0,3.458
406.5,3.506
406.0,3.476
405.5,3.470
405.0,3.505
404.5,3.464
404.0,3.459
403.5,3.451
403.0,3.434
402.5,3.472
402.0,3.442
401.5,3.522
401.0,3.533
400.5,3.569
400.0,3.522
399.5,3.458
399.0,3.524
398.5,3.530
398.0,3.528
397.5,3.521
397.0,3.492
396.5,3.455
396.0,3.380
395.5,3.455
395.0,3.489
394.5,3.463
394.0,3.441
393.5,3.475
393.0,3.498
392.5,3.469
392.0,3.437
391.5,3.506
391.0,3.507
390.5,3.496
390.0,3.521
389.5,3.468
389.0,3.503
388.5,3.427
388.0,3.449
387.5,3.429
387.0,3.495
386.5,3.501
386.0,3.476
385.5,3.487
385.0,3.562
384.5,3.635
384.0,3.662
383.5,3.556
383.0,3.511
382.5,3.436
382.0,3.424
381.5,3.352
381.0,3.425
380.5,3.488
380.0,3.380
379.5,3.547
379.0,3.505
378.5,3.452
378.0,3.459
377.5,3.475
377.0,3.521
376.5,3.432
376.0,3.485
375.5,3.435
375.0,3.341
374.5,3.287
374.0,3.292
373.5,3.408
373.0,3.364
372.5,3.493
372.0,3.567
371.5,3.558
371.0,3.540
370.5,3.424
370.0,3.517
369.5,3.458
369.0,3.481
368.5,3.428
368.0,3.349
367.5,3.384
367.0,3.327
366.5,3.400
366.0,3.455
365.5,3.509
365.0,3.608
364.5,3.550
364.0,3.626
363.5,3.708
363.0,3.584
362.5,3.720
362.0,3.713
361.5,3.703
361.0,3.819
360.5,3.741
360.0,3.700
359.5,3.673
359.0,3.691
358.5,3.692
358.0,3.582
357.5,3.639
357.0,3.619
356.5,3.704
356.0,3.775
355.5,3.730
355.0,3.740
354.5,3.679
354.0,3.716
353.5,3.698
353.0,3.686
352.5,3.730
352.0,3.677
351.5,3.786
351.0,3.714
350.5,3.726
350.0,3.636
349.5,3.522
349.0,3.557
348.5,3.648
348.0,3.680
347.5,3.657
347.0,3.581
346.5,3.594
346.0,3.605
345.5,3.817
345.0,3.742
344.5,3.812
344.0,3.794
343.5,3.731
343.0,3.720
342.5,3.659
342.0,3.576
341.5,3.642
341.0,3.788
340.5,3.672
340.0,3.675
339.5,3.738
339.0,3.811
338.5,3.696
338.0,3.642
337.5,3.658
337.0,3.771
336.5,3.752
336.0,3.834
335.5,3.707
335.0,3.710
334.5,3.616
334.0,3.745
333.5,3.905
333.0,3.804
332.5,3.814
332.0,3.749
331.5,3.844
331.0,3.755
330.5,3.784
330.0,3.805
329.5,3.769
329.0,3.780
328.5,3.772
328.0,3.887
327.5,3.744
327.0,3.717
326.5,3.844
326.0,3.771
325.5,3.826
325.0,3.795
324.5,3.784
324.0,3.809
323.5,3.788
323.0,3.789
322.5,3.729
322.0,3.780
321.5,3.770
321.0,3.738
320.5,3.826
320.0,3.861
319.5,3.868
319.0,3.823
318.5,3.811
318.0,3.852
317.5,3.847
317.0,3.947
316.5,3.888
316.0,3.897
315.5,3.826
315.0,3.862
314.5,3.879
314.0,3.785
313.5,3.820
313.0,3.818
312.5,3.886
312.0,3.833
311.5,3.845
311.0,3.923
310.5,3.972
310.0,3.918
309.5,3.892
309.0,3.833
308.5,3.927
308.0,3.842
307.5,3.803
307.0,3.717
306.5,3.769
306.0,3.832
305.5,3.829
305.0,3.785
304.5,3.715
304.0,3.677
303.5,3.801
303.0,3.802
302.5,3.784
302.0,3.732
301.5,3.735
301.0,3.849
300.5,3.831
300.0,3.849
299.5,3.812
299.0,3.785
298.5,3.832
298.0,3.834
297.5,3.846
297.0,3.835
296.5,3.856
296.0,3.831
295.5,3.862
295.0,3.899
294.5,3.846
294.0,3.885
293.5,3.800
293.0,3.892
292.5,3.894
292.0,3.856
291.5,3.848
291.0,3.846
290.5,3.876
290.0,3.841
289.5,3.816
289.0,3.740
288.5,3.789
288.0,3.859
287.5,3.820
287.0,3.860
286.5,3.770
286.0,3.828
285.5,3.906
285.0,3.806
284.5,3.795
284.0,3.715
283.5,3.779
283.0,3.880
282.5,3.898
282.0,3.923
281.5,3.817
281.0,3.857
280.5,3.833
280.0,3.854
279.5,3.856
279.0,3.846
278.5,3.887
278.0,3.846
277.5,3.921
277.0,3.939
276.5,3.865
276.0,3.866
275.5,3.743
275.0,3.839
274.5,3.856
274.0,3.841
273.5,3.853
273.0,3.970
272.5,3.950
272.0,3.917
271.5,3.896
271.0,3.879
270.5,3.922
270.0,3.975
269.5,3.970
269.0,3.898
268.5,3.801
268.0,3.822
267.5,3.841
267.0,3.939
266.5,3.955
266.0,3.898
265.5,3.906
265.0,3.896
264.5,3.954
264.0,3.859
263.5,3.869
263.0,3.894
262.5,3.940
262.0,3.965
261.5,3.897
261.0,3.927
260.5,3.878
260.0,3.938
259.5,3.960
259.0,3.926
258.5,3.937
258.0,3.932
257.5,3.925
257.0,3.926
256.5,3.953
256.0,3.925
255.5,3.875
255.0,3.897
254.5,3.926
254.0,3.984
253.5,3.968
253.0,3.934
252.5,3.936
252.0,3.936
251.5,3.938
251.0,3.919
250.5,3.935
250.0,3.977
249.5,3.988
249.0,3.990
248.5,3.990
248.0,3.990
247.5,3.994
247.0,3.994
246.5,3.992
246.0,3.975
245.5,3.960
245.0,3.937
244.5,3.972
244.0,4.000
243.5,4.000
243.0,3.981
242.5,3.977
242.0,3.993
241.5,3.983
241.0,3.985
240.5,3.995
240.0,3.993
239.5,3.993
239.0,3.995
238.5,3.975
238.0,3.969
237.5,3.980
237.0,3.978
236.5,3.963
236.0,3.977
235.5,3.962
235.0,3.954
234.5,3.934
234.0,3.981
233.5,3.997
233.0,4.000
232.5,4.000
232.0,3.977
231.5,3.977
231.0,3.993
230.5,3.996
230.0,3.996
229.5,3.980
229.0,3.980
228.5,3.979
228.0,4.000
227.5,3.962
227.0,3.962
226.5,3.953
226.0,3.982
225.5,3.982
225.0,3.983
224.5,3.983
224.0,3.966
223.5,3.965
223.0,3.997
222.5,3.976
222.0,3.964
221.5,3.932
221.0,3.965
220.5,3.965
220.0,4.000
219.5,3.994
219.0,3.971
218.5,3.971
218.0,3.977
217.5,4.000
217.0,3.961
216.5,3.961
216.0,3.944
215.5,3.980
215.0,3.963
214.5,3.959
214.0,3.963
213.5,3.936
213.0,3.952
212.5,3.979
212.0,3.984
211.5,3.955
211.0,3.905
210.5,3.951
210.0,3.951
209.5,3.997
209.0,3.927
208.5,3.915
208.0,3.943
207.5,3.956
207.0,3.983
206.5,3.939
206.0,3.925
205.5,3.924
205.0,3.925
204.5,3.964
204.0,3.977
203.5,3.997
203.0,3.983
202.5,3.985
202.0,4.000
201.5,3.993
201.0,3.926
200.5,3.926
200.0,3.983
