"PHT04S63.SPC"
WL/nm,Abs
900.0,0.090
899.5,0.090
899.0,0.090
898.5,0.090
898.0,0.089
897.5,0.090
897.0,0.090
896.5,0.089
896.0,0.089
895.5,0.089
895.0,0.089
894.5,0.089
894.0,0.089
893.5,0.089
893.0,0.089
892.5,0.089
892.0,0.089
891.5,0.088
891.0,0.088
890.5,0.088
890.0,0.087
889.5,0.087
889.0,0.087
888.5,0.087
888.0,0.087
887.5,0.087
887.0,0.088
886.5,0.088
886.0,0.089
885.5,0.089
885.0,0.089
884.5,0.090
884.0,0.090
883.5,0.090
883.0,0.090
882.5,0.091
882.0,0.091
881.5,0.091
881.0,0.091
880.5,0.091
880.0,0.091
879.5,0.092
879.0,0.092
878.5,0.092
878.0,0.092
877.5,0.092
877.0,0.092
876.5,0.092
876.0,0.092
875.5,0.092
875.0,0.092
874.5,0.091
874.0,0.091
873.5,0.091
873.0,0.090
872.5,0.090
872.0,0.090
871.5,0.089
871.0,0.089
870.5,0.088
870.0,0.088
869.5,0.088
869.0,0.087
868.5,0.087
868.0,0.087
867.5,0.086
867.0,0.086
866.5,0.086
866.0,0.085
865.5,0.085
865.0,0.085
864.5,0.085
864.0,0.084
863.5,0.084
863.0,0.084
862.5,0.084
862.0,0.084
861.5,0.084
861.0,0.083
860.5,0.083
860.0,0.083
859.5,0.083
859.0,0.083
858.5,0.083
858.0,0.083
857.5,0.083
857.0,0.083
856.5,0.083
856.0,0.082
855.5,0.082
855.0,0.082
854.5,0.082
854.0,0.082
853.5,0.082
853.0,0.082
852.5,0.082
852.0,0.082
851.5,0.082
851.0,0.081
850.5,0.081
850.0,0.081
849.5,0.081
849.0,0.081
848.5,0.081
848.0,0.081
847.5,0.081
847.0,0.081
846.5,0.081
846.0,0.081
845.5,0.081
845.0,0.081
844.5,0.081
844.0,0.081
843.5,0.080
843.0,0.080
842.5,0.080
842.0,0.080
841.5,0.080
841.0,0.080
840.5,0.080
840.0,0.080
839.5,0.080
839.0,0.080
838.5,0.080
838.0,0.080
837.5,0.080
837.0,0.080
836.5,0.079
836.0,0.079
835.5,0.079
835.0,0.079
834.5,0.079
834.0,0.079
833.5,0.079
833.0,0.079
832.5,0.079
832.0,0.078
831.5,0.078
831.0,0.078
830.5,0.078
830.0,0.077
829.5,0.077
829.0,0.077
828.5,0.077
828.0,0.076
827.5,0.076
827.0,0.076
826.5,0.076
826.0,0.075
825.5,0.075
825.0,0.075
824.5,0.075
824.0,0.075
823.5,0.074
823.0,0.074
822.5,0.074
822.0,0.074
821.5,0.074
821.0,0.074
820.5,0.074
820.0,0.074
819.5,0.074
819.0,0.074
818.5,0.073
818.0,0.073
817.5,0.073
817.0,0.073
816.5,0.073
816.0,0.073
815.5,0.073
815.0,0.073
814.5,0.073
814.0,0.073
813.5,0.073
813.0,0.073
812.5,0.073
812.0,0.073
811.5,0.073
811.0,0.073
810.5,0.073
810.0,0.073
809.5,0.073
809.0,0.073
808.5,0.073
808.0,0.073
807.5,0.073
807.0,0.073
806.5,0.073
806.0,0.073
805.5,0.073
805.0,0.073
804.5,0.073
804.0,0.073
803.5,0.073
803.0,0.073
802.5,0.074
802.0,0.074
801.5,0.074
801.0,0.074
800.5,0.074
800.0,0.074
799.5,0.074
799.0,0.074
798.5,0.074
798.0,0.074
797.5,0.074
797.0,0.074
796.5,0.074
796.0,0.074
795.5,0.074
795.0,0.074
794.5,0.074
794.0,0.074
793.5,0.075
793.0,0.075
792.5,0.075
792.0,0.075
791.5,0.075
791.0,0.075
790.5,0.075
790.0,0.075
789.5,0.075
789.0,0.075
788.5,0.075
788.0,0.075
787.5,0.075
787.0,0.075
786.5,0.075
786.0,0.075
785.5,0.076
785.0,0.076
784.5,0.076
784.0,0.076
783.5,0.076
783.0,0.076
782.5,0.076
782.0,0.076
781.5,0.076
781.0,0.076
780.5,0.076
780.0,0.076
779.5,0.076
779.0,0.076
778.5,0.076
778.0,0.076
777.5,0.077
777.0,0.077
776.5,0.077
776.0,0.077
775.5,0.077
775.0,0.077
774.5,0.077
774.0,0.077
773.5,0.077
773.0,0.077
772.5,0.077
772.0,0.077
771.5,0.078
771.0,0.077
770.5,0.078
770.0,0.078
769.5,0.078
769.0,0.078
768.5,0.078
768.0,0.078
767.5,0.078
767.0,0.078
766.5,0.078
766.0,0.078
765.5,0.078
765.0,0.078
764.5,0.078
764.0,0.078
763.5,0.079
763.0,0.078
762.5,0.079
762.0,0.079
761.5,0.079
761.0,0.079
760.5,0.078
760.0,0.078
759.5,0.079
759.0,0.079
758.5,0.079
758.0,0.079
757.5,0.079
757.0,0.079
756.5,0.080
756.0,0.080
755.5,0.079
755.0,0.080
754.5,0.080
754.0,0.080
753.5,0.080
753.0,0.080
752.5,0.080
752.0,0.080
751.5,0.080
751.0,0.081
750.5,0.081
750.0,0.081
749.5,0.081
749.0,0.081
748.5,0.081
748.0,0.081
747.5,0.081
747.0,0.082
746.5,0.082
746.0,0.082
745.5,0.082
745.0,0.082
744.5,0.082
744.0,0.083
743.5,0.083
743.0,0.083
742.5,0.083
742.0,0.083
741.5,0.083
741.0,0.084
740.5,0.084
740.0,0.084
739.5,0.084
739.0,0.085
738.5,0.085
738.0,0.085
737.5,0.085
737.0,0.085
736.5,0.085
736.0,0.086
735.5,0.086
735.0,0.086
734.5,0.086
734.0,0.086
733.5,0.086
733.0,0.087
732.5,0.087
732.0,0.087
731.5,0.087
731.0,0.087
730.5,0.088
730.0,0.088
729.5,0.088
729.0,0.089
728.5,0.089
728.0,0.089
727.5,0.090
727.0,0.090
726.5,0.091
726.0,0.091
725.5,0.092
725.0,0.092
724.5,0.093
724.0,0.094
723.5,0.094
723.0,0.095
722.5,0.096
722.0,0.097
721.5,0.097
721.0,0.098
720.5,0.099
720.0,0.100
719.5,0.101
719.0,0.102
718.5,0.103
718.0,0.104
717.5,0.105
717.0,0.107
716.5,0.108
716.0,0.109
715.5,0.111
715.0,0.112
714.5,0.113
714.0,0.115
713.5,0.116
713.0,0.118
712.5,0.120
712.0,0.122
711.5,0.123
711.0,0.125
710.5,0.127
710.0,0.129
709.5,0.132
709.0,0.134
708.5,0.137
708.0,0.139
707.5,0.142
707.0,0.145
706.5,0.147
706.0,0.150
705.5,0.153
705.0,0.156
704.5,0.160
704.0,0.163
703.5,0.167
703.0,0.170
702.5,0.174
702.0,0.178
701.5,0.182
701.0,0.186
700.5,0.190
700.0,0.195
699.5,0.200
699.0,0.205
698.5,0.210
698.0,0.215
697.5,0.221
697.0,0.226
696.5,0.232
696.0,0.238
695.5,0.244
695.0,0.251
694.5,0.257
694.0,0.264
693.5,0.271
693.0,0.279
692.5,0.286
692.0,0.294
691.5,0.303
691.0,0.311
690.5,0.320
690.0,0.330
689.5,0.339
689.0,0.349
688.5,0.360
688.0,0.370
687.5,0.381
687.0,0.393
686.5,0.405
686.0,0.417
685.5,0.430
685.0,0.443
684.5,0.457
684.0,0.471
683.5,0.485
683.0,0.500
682.5,0.515
682.0,0.530
681.5,0.547
681.0,0.563
680.5,0.581
680.0,0.599
679.5,0.617
679.0,0.636
678.5,0.656
678.0,0.676
677.5,0.697
677.0,0.718
676.5,0.739
676.0,0.761
675.5,0.783
675.0,0.805
674.5,0.829
674.0,0.853
673.5,0.878
673.0,0.905
672.5,0.931
672.0,0.959
671.5,0.988
671.0,1.019
670.5,1.049
670.0,1.080
669.5,1.112
669.0,1.145
668.5,1.178
668.0,1.212
667.5,1.247
667.0,1.281
666.5,1.317
666.0,1.354
665.5,1.390
665.0,1.428
664.5,1.466
664.0,1.504
663.5,1.542
663.0,1.579
662.5,1.617
662.0,1.656
661.5,1.696
661.0,1.736
660.5,1.775
660.0,1.814
659.5,1.854
659.0,1.893
658.5,1.932
658.0,1.970
657.5,2.007
657.0,2.042
656.5,2.075
656.0,2.107
655.5,2.137
655.0,2.165
654.5,2.193
654.0,2.218
653.5,2.242
653.0,2.265
652.5,2.285
652.0,2.304
651.5,2.321
651.0,2.336
650.5,2.335
650.0,2.322
649.5,2.309
649.0,2.318
648.5,2.326
648.0,2.332
647.5,2.336
647.0,2.339
646.5,2.341
646.0,2.342
645.5,2.342
645.0,2.341
644.5,2.339
644.0,2.336
643.5,2.332
643.0,2.328
642.5,2.322
642.0,2.317
641.5,2.312
641.0,2.307
640.5,2.301
640.0,2.296
639.5,2.291
639.0,2.287
638.5,2.283
638.0,2.280
637.5,2.278
637.0,2.277
636.5,2.276
636.0,2.277
635.5,2.278
635.0,2.279
634.5,2.281
634.0,2.283
633.5,2.286
633.0,2.288
632.5,2.291
632.0,2.293
631.5,2.296
631.0,2.298
630.5,2.299
630.0,2.301
629.5,2.302
629.0,2.303
628.5,2.303
628.0,2.303
627.5,2.303
627.0,2.303
626.5,2.303
626.0,2.303
625.5,2.302
625.0,2.302
624.5,2.302
624.0,2.301
623.5,2.300
623.0,2.300
622.5,2.299
622.0,2.299
621.5,2.298
621.0,2.297
620.5,2.296
620.0,2.296
619.5,2.295
619.0,2.294
618.5,2.293
618.0,2.293
617.5,2.292
617.0,2.291
616.5,2.290
616.0,2.289
615.5,2.288
615.0,2.287
614.5,2.286
614.0,2.285
613.5,2.284
613.0,2.283
612.5,2.282
612.0,2.281
611.5,2.280
611.0,2.279
610.5,2.279
610.0,2.277
609.5,2.276
609.0,2.275
608.5,2.274
608.0,2.273
607.5,2.272
607.0,2.271
606.5,2.270
606.0,2.269
605.5,2.267
605.0,2.266
604.5,2.265
604.0,2.264
603.5,2.263
603.0,2.261
602.5,2.260
602.0,2.259
601.5,2.258
601.0,2.257
600.5,2.256
600.0,2.254
599.5,2.253
599.0,2.252
598.5,2.251
598.0,2.250
597.5,2.248
597.0,2.247
596.5,2.246
596.0,2.244
595.5,2.243
595.0,2.242
594.5,2.241
594.0,2.239
593.5,2.238
593.0,2.236
592.5,2.235
592.0,2.234
591.5,2.233
591.0,2.231
590.5,2.230
590.0,2.228
589.5,2.227
589.0,2.226
588.5,2.224
588.0,2.223
587.5,2.221
587.0,2.220
586.5,2.219
586.0,2.217
585.5,2.216
585.0,2.214
584.5,2.213
584.0,2.211
583.5,2.210
583.0,2.208
582.5,2.207
582.0,2.205
581.5,2.204
581.0,2.202
580.5,2.200
580.0,2.199
579.5,2.197
579.0,2.196
578.5,2.194
578.0,2.193
577.5,2.191
577.0,2.189
576.5,2.187
576.0,2.185
575.5,2.184
575.0,2.182
574.5,2.180
574.0,2.178
573.5,2.176
573.0,2.174
572.5,2.172
572.0,2.170
571.5,2.168
571.0,2.166
570.5,2.164
570.0,2.162
569.5,2.160
569.0,2.158
568.5,2.155
568.0,2.153
567.5,2.151
567.0,2.148
566.5,2.146
566.0,2.143
565.5,2.141
565.0,2.138
564.5,2.136
564.0,2.134
563.5,2.131
563.0,2.128
562.5,2.125
562.0,2.122
561.5,2.119
561.0,2.116
560.5,2.113
560.0,2.110
559.5,2.106
559.0,2.103
558.5,2.100
558.0,2.096
557.5,2.093
557.0,2.089
556.5,2.085
556.0,2.081
555.5,2.077
555.0,2.073
554.5,2.069
554.0,2.065
553.5,2.061
553.0,2.057
552.5,2.052
552.0,2.048
551.5,2.043
551.0,2.038
550.5,2.034
550.0,2.029
549.5,2.023
549.0,2.018
548.5,2.012
548.0,2.007
547.5,2.002
547.0,1.996
546.5,1.991
546.0,1.986
545.5,1.980
545.0,1.974
544.5,1.969
544.0,1.963
543.5,1.957
543.0,1.951
542.5,1.946
542.0,1.939
541.5,1.934
541.0,1.928
540.5,1.922
540.0,1.916
539.5,1.909
539.0,1.903
538.5,1.897
538.0,1.890
537.5,1.884
537.0,1.878
536.5,1.943
536.0,2.118
535.5,2.292
535.0,2.301
534.5,2.293
534.0,2.284
533.5,2.276
533.0,2.270
532.5,2.263
532.0,2.257
531.5,2.251
531.0,2.246
530.5,2.240
530.0,2.234
529.5,2.237
529.0,2.259
528.5,2.281
528.0,2.282
527.5,2.278
527.0,2.275
526.5,2.271
526.0,2.268
525.5,2.265
525.0,2.263
524.5,2.261
524.0,2.259
523.5,2.258
523.0,2.257
522.5,2.256
522.0,2.256
521.5,2.255
521.0,2.255
520.5,2.256
520.0,2.256
519.5,2.257
519.0,2.258
518.5,2.260
518.0,2.261
517.5,2.263
517.0,2.265
516.5,2.269
516.0,2.271
515.5,2.274
515.0,2.278
514.5,2.281
514.0,2.286
513.5,2.290
513.0,2.295
512.5,2.300
512.0,2.306
511.5,2.311
511.0,2.316
510.5,2.322
510.0,2.328
509.5,2.334
509.0,2.341
508.5,2.348
508.0,2.355
507.5,2.363
507.0,2.370
506.5,2.378
506.0,2.386
505.5,2.395
505.0,2.402
504.5,2.410
504.0,2.418
503.5,2.427
503.0,2.436
502.5,2.445
502.0,2.453
501.5,2.463
501.0,2.472
500.5,2.481
500.0,2.490
499.5,2.498
499.0,2.507
498.5,2.516
498.0,2.526
497.5,2.536
497.0,2.545
496.5,2.553
496.0,2.562
495.5,2.573
495.0,2.585
494.5,2.593
494.0,2.601
493.5,2.611
493.0,2.621
492.5,2.633
492.0,2.643
491.5,2.654
491.0,2.664
490.5,2.673
490.0,2.682
489.5,2.691
489.0,2.702
488.5,2.712
488.0,2.722
487.5,2.731
487.0,2.741
486.5,2.751
486.0,2.760
485.5,2.770
485.0,2.780
484.5,2.787
484.0,2.794
483.5,2.806
483.0,2.813
482.5,2.820
482.0,2.826
481.5,2.832
481.0,2.841
480.5,2.848
480.0,2.855
479.5,2.859
479.0,2.865
478.5,2.871
478.0,2.879
477.5,2.886
477.0,2.890
476.5,2.891
476.0,2.900
475.5,2.904
475.0,2.908
474.5,2.914
474.0,2.916
473.5,2.922
473.0,2.921
472.5,2.926
472.0,2.931
471.5,2.928
471.0,2.931
470.5,2.937
470.0,2.939
469.5,2.944
469.0,2.942
468.5,2.944
468.0,2.947
467.5,2.946
467.0,2.946
466.5,2.947
466.0,2.951
465.5,2.950
465.0,2.948
464.5,2.950
464.0,2.950
463.5,2.952
463.0,2.947
462.5,2.942
462.0,2.941
461.5,2.938
461.0,2.932
460.5,2.931
460.0,2.921
459.5,2.919
459.0,2.914
458.5,2.909
458.0,2.909
457.5,2.904
457.0,2.902
456.5,2.898
456.0,2.899
455.5,2.898
455.0,2.899
454.5,2.900
454.0,2.904
453.5,2.906
453.0,2.908
452.5,2.905
452.0,2.906
451.5,2.911
451.0,2.917
450.5,2.925
450.0,2.928
449.5,2.931
449.0,2.939
448.5,2.943
448.0,2.950
447.5,2.950
447.0,2.956
446.5,2.965
446.0,2.969
445.5,2.974
445.0,2.973
444.5,2.972
444.0,2.981
443.5,2.986
443.0,2.993
442.5,2.995
442.0,2.997
441.5,3.003
441.0,2.996
440.5,2.997
440.0,2.998
439.5,2.996
439.0,2.999
438.5,2.993
438.0,2.987
437.5,2.981
437.0,2.979
436.5,2.980
436.0,2.971
435.5,2.965
435.0,2.957
434.5,2.950
434.0,2.949
433.5,2.946
433.0,2.941
432.5,2.937
432.0,2.928
431.5,2.926
431.0,2.918
430.5,2.916
430.0,2.909
429.5,2.908
429.0,2.909
428.5,2.888
428.0,2.880
427.5,2.878
427.0,2.875
426.5,2.872
426.0,2.871
425.5,2.860
425.0,2.852
424.5,2.851
424.0,2.850
423.5,2.838
423.0,2.836
422.5,2.846
422.0,2.842
421.5,2.835
421.0,2.825
420.5,2.813
420.0,2.800
419.5,2.803
419.0,2.796
418.5,2.787
418.0,2.781
417.5,2.773
417.0,2.764
416.5,2.866
416.0,3.109
415.5,3.353
415.0,3.374
414.5,3.383
414.0,3.380
413.5,3.367
413.0,3.361
412.5,3.347
412.0,3.365
411.5,3.348
411.0,3.361
410.5,3.408
410.0,3.428
409.5,3.409
409.0,3.377
408.5,3.347
408.0,3.349
407.5,3.326
407.0,3.345
406.5,3.343
406.0,3.352
405.5,3.348
405.0,3.330
404.5,3.374
404.0,3.382
403.5,3.364
403.0,3.374
402.5,3.361
402.0,3.394
401.5,3.325
401.0,3.323
400.5,3.341
400.0,3.322
399.5,3.354
399.0,3.323
398.5,3.304
398.0,3.305
397.5,3.313
397.0,3.436
396.5,3.441
396.0,3.406
395.5,3.326
395.0,3.319
394.5,3.325
394.0,3.248
393.5,3.223
393.0,3.226
392.5,3.307
392.0,3.257
391.5,3.175
391.0,3.148
390.5,3.131
390.0,3.114
389.5,3.125
389.0,3.117
388.5,3.105
388.0,3.116
387.5,3.119
387.0,3.108
386.5,3.084
386.0,3.068
385.5,3.023
385.0,3.024
384.5,3.039
384.0,3.010
383.5,2.988
383.0,2.966
382.5,2.929
382.0,2.949
381.5,2.948
381.0,2.931
380.5,2.911
380.0,2.877
379.5,2.881
379.0,2.859
378.5,2.841
378.0,2.813
377.5,2.797
377.0,2.783
376.5,2.764
376.0,2.763
375.5,2.755
375.0,2.718
374.5,2.700
374.0,2.684
373.5,2.677
373.0,2.655
372.5,2.617
372.0,2.616
371.5,2.602
371.0,2.599
370.5,2.571
370.0,2.541
369.5,2.534
369.0,2.528
368.5,2.506
368.0,2.486
367.5,2.456
367.0,2.453
366.5,2.432
366.0,2.438
365.5,2.430
365.0,2.402
364.5,2.402
364.0,2.395
363.5,2.379
363.0,2.376
362.5,2.363
362.0,2.351
361.5,2.349
361.0,2.325
360.5,2.319
360.0,2.303
359.5,2.297
359.0,2.284
358.5,2.264
358.0,2.256
357.5,2.242
357.0,2.239
356.5,2.225
356.0,2.213
355.5,2.207
355.0,2.193
354.5,2.185
354.0,2.175
353.5,2.162
353.0,2.159
352.5,2.150
352.0,2.139
351.5,2.128
351.0,2.113
350.5,2.110
350.0,2.103
349.5,2.100
349.0,2.085
348.5,2.075
348.0,2.066
347.5,2.054
347.0,2.053
346.5,2.045
346.0,2.034
345.5,2.031
345.0,2.016
344.5,2.011
344.0,2.005
343.5,2.001
343.0,1.997
342.5,1.992
342.0,1.994
341.5,1.992
341.0,1.988
340.5,1.973
340.0,1.956
339.5,1.958
339.0,1.953
338.5,1.947
338.0,1.952
337.5,1.965
337.0,1.973
336.5,1.974
336.0,1.973
335.5,1.982
335.0,1.991
334.5,2.000
334.0,2.019
333.5,2.031
333.0,2.038
332.5,2.052
332.0,2.071
331.5,2.089
331.0,2.105
330.5,2.120
330.0,2.141
329.5,2.164
329.0,2.190
328.5,2.209
328.0,2.245
327.5,2.271
327.0,2.314
326.5,2.340
326.0,2.352
325.5,2.381
325.0,2.403
324.5,2.441
324.0,2.485
323.5,2.526
323.0,2.563
322.5,2.595
322.0,2.659
321.5,2.697
321.0,2.742
320.5,2.770
320.0,2.788
319.5,2.836
319.0,2.882
318.5,2.928
318.0,2.947
317.5,2.951
317.0,2.991
316.5,3.003
316.0,3.046
315.5,3.105
315.0,3.220
314.5,3.389
314.0,3.343
313.5,3.317
313.0,3.356
312.5,3.259
312.0,3.292
311.5,3.227
311.0,3.382
310.5,3.369
310.0,3.341
309.5,3.339
309.0,3.388
308.5,3.302
308.0,3.332
307.5,3.353
307.0,3.389
306.5,3.334
306.0,3.318
305.5,3.252
305.0,3.132
304.5,3.143
304.0,3.096
303.5,3.072
303.0,3.067
302.5,3.103
302.0,3.119
301.5,3.110
301.0,3.114
300.5,3.138
300.0,3.091
299.5,3.112
299.0,3.154
298.5,3.186
298.0,3.273
297.5,3.297
297.0,3.380
296.5,3.528
296.0,3.451
295.5,3.466
295.0,3.504
294.5,3.648
294.0,3.677
293.5,3.636
293.0,3.682
292.5,3.600
292.0,3.686
291.5,3.649
291.0,3.629
290.5,3.692
290.0,3.687
289.5,3.734
289.0,3.746
288.5,3.714
288.0,3.779
287.5,3.740
287.0,3.836
286.5,3.748
286.0,3.700
285.5,3.840
285.0,3.861
284.5,3.870
284.0,3.751
283.5,3.782
283.0,3.802
282.5,3.774
282.0,3.838
281.5,3.763
281.0,3.716
280.5,3.747
280.0,3.776
279.5,3.851
279.0,3.901
278.5,3.910
278.0,3.882
277.5,3.781
277.0,3.836
276.5,3.801
276.0,3.841
275.5,3.764
275.0,3.734
274.5,3.789
274.0,3.806
273.5,3.831
273.0,3.745
272.5,3.791
272.0,3.778
271.5,3.786
271.0,3.822
270.5,3.764
270.0,3.783
269.5,3.722
269.0,3.780
268.5,3.880
268.0,3.790
267.5,3.820
267.0,3.841
266.5,3.890
266.0,3.859
265.5,3.855
265.0,3.860
264.5,3.869
264.0,3.923
263.5,3.938
263.0,3.880
262.5,3.810
262.0,3.793
261.5,3.896
261.0,3.872
260.5,3.875
260.0,3.939
259.5,3.941
259.0,3.914
258.5,3.897
258.0,3.915
257.5,3.914
257.0,3.868
256.5,3.909
256.0,3.900
255.5,3.896
255.0,3.904
254.5,3.913
254.0,3.942
253.5,3.891
253.0,3.923
252.5,3.996
252.0,3.963
251.5,3.958
251.0,3.899
250.5,3.874
250.0,3.912
249.5,3.920
249.0,3.934
248.5,3.878
248.0,3.889
247.5,3.877
247.0,3.939
246.5,3.972
246.0,3.936
245.5,3.916
245.0,3.885
244.5,3.896
244.0,3.912
243.5,3.953
243.0,3.977
242.5,3.991
242.0,3.979
241.5,3.982
241.0,3.988
240.5,4.000
240.0,3.979
239.5,3.971
239.0,3.963
238.5,3.959
238.0,3.955
237.5,3.951
237.0,3.940
236.5,3.936
236.0,3.967
235.5,3.982
235.0,3.987
234.5,3.986
234.0,3.920
233.5,3.925
233.0,3.960
232.5,3.990
232.0,3.990
231.5,3.963
231.0,3.944
230.5,3.932
230.0,3.951
229.5,3.959
229.0,3.978
228.5,3.953
228.0,3.958
227.5,3.954
227.0,3.949
226.5,3.963
226.0,3.953
225.5,3.964
225.0,4.000
224.5,4.000
224.0,4.000
223.5,3.955
223.0,3.942
222.5,3.978
222.0,3.987
221.5,3.978
221.0,3.921
220.5,3.927
220.0,3.932
219.5,3.973
219.0,3.998
218.5,3.981
218.0,3.972
217.5,3.909
217.0,3.937
216.5,3.978
216.0,3.971
215.5,3.971
215.0,3.958
214.5,3.946
214.0,3.947
213.5,3.964
213.0,3.965
212.5,3.915
212.0,3.922
211.5,3.896
211.0,3.957
210.5,3.939
210.0,3.921
209.5,3.913
209.0,3.938
208.5,3.926
208.0,3.934
207.5,3.975
207.0,3.969
206.5,3.898
206.0,3.885
205.5,3.888
205.0,3.925
204.5,3.941
204.0,3.940
203.5,3.941
203.0,3.931
202.5,3.935
202.0,3.882
201.5,3.879
201.0,3.857
200.5,3.860
200.0,3.932
