"PHT09S61.SPC"
WL/nm,Abs
900.0,0.090
899.5,0.089
899.0,0.089
898.5,0.089
898.0,0.089
897.5,0.089
897.0,0.089
896.5,0.089
896.0,0.089
895.5,0.089
895.0,0.089
894.5,0.089
894.0,0.089
893.5,0.089
893.0,0.089
892.5,0.089
892.0,0.088
891.5,0.088
891.0,0.087
890.5,0.087
890.0,0.087
889.5,0.086
889.0,0.086
888.5,0.086
888.0,0.086
887.5,0.087
887.0,0.087
886.5,0.088
886.0,0.088
885.5,0.089
885.0,0.089
884.5,0.089
884.0,0.089
883.5,0.090
883.0,0.090
882.5,0.090
882.0,0.090
881.5,0.090
881.0,0.090
880.5,0.091
880.0,0.091
879.5,0.091
879.0,0.091
878.5,0.091
878.0,0.091
877.5,0.091
877.0,0.091
876.5,0.091
876.0,0.091
875.5,0.091
875.0,0.091
874.5,0.090
874.0,0.090
873.5,0.090
873.0,0.090
872.5,0.089
872.0,0.089
871.5,0.088
871.0,0.088
870.5,0.088
870.0,0.087
869.5,0.087
869.0,0.087
868.5,0.086
868.0,0.086
867.5,0.086
867.0,0.085
866.5,0.085
866.0,0.085
865.5,0.084
865.0,0.084
864.5,0.084
864.0,0.084
863.5,0.083
863.0,0.083
862.5,0.083
862.0,0.083
861.5,0.083
861.0,0.083
860.5,0.083
860.0,0.083
859.5,0.082
859.0,0.082
858.5,0.082
858.0,0.082
857.5,0.082
857.0,0.082
856.5,0.082
856.0,0.081
855.5,0.081
855.0,0.081
854.5,0.081
854.0,0.081
853.5,0.081
853.0,0.081
852.5,0.081
852.0,0.081
851.5,0.081
851.0,0.081
850.5,0.081
850.0,0.081
849.5,0.080
849.0,0.080
848.5,0.080
848.0,0.080
847.5,0.080
847.0,0.080
846.5,0.080
846.0,0.080
845.5,0.080
845.0,0.080
844.5,0.080
844.0,0.080
843.5,0.080
843.0,0.080
842.5,0.080
842.0,0.079
841.5,0.079
841.0,0.079
840.5,0.079
840.0,0.079
839.5,0.079
839.0,0.079
838.5,0.079
838.0,0.079
837.5,0.079
837.0,0.079
836.5,0.079
836.0,0.079
835.5,0.078
835.0,0.078
834.5,0.078
834.0,0.078
833.5,0.078
833.0,0.078
832.5,0.078
832.0,0.077
831.5,0.077
831.0,0.077
830.5,0.077
830.0,0.076
829.5,0.076
829.0,0.076
828.5,0.076
828.0,0.076
827.5,0.075
827.0,0.075
826.5,0.075
826.0,0.074
825.5,0.074
825.0,0.074
824.5,0.074
824.0,0.074
823.5,0.073
823.0,0.073
822.5,0.073
822.0,0.073
821.5,0.073
821.0,0.073
820.5,0.073
820.0,0.073
819.5,0.073
819.0,0.072
818.5,0.072
818.0,0.072
817.5,0.072
817.0,0.072
816.5,0.072
816.0,0.072
815.5,0.072
815.0,0.072
814.5,0.072
814.0,0.072
813.5,0.072
813.0,0.072
812.5,0.072
812.0,0.072
811.5,0.072
811.0,0.072
810.5,0.072
810.0,0.072
809.5,0.072
809.0,0.072
808.5,0.072
808.0,0.072
807.5,0.072
807.0,0.072
806.5,0.072
806.0,0.072
805.5,0.072
805.0,0.072
804.5,0.072
804.0,0.072
803.5,0.072
803.0,0.072
802.5,0.072
802.0,0.072
801.5,0.072
801.0,0.073
800.5,0.072
800.0,0.072
799.5,0.073
799.0,0.073
798.5,0.073
798.0,0.073
797.5,0.073
797.0,0.073
796.5,0.073
796.0,0.073
795.5,0.073
795.0,0.073
794.5,0.073
794.0,0.073
793.5,0.073
793.0,0.073
792.5,0.073
792.0,0.073
791.5,0.074
791.0,0.074
790.5,0.074
790.0,0.074
789.5,0.074
789.0,0.074
788.5,0.074
788.0,0.074
787.5,0.074
787.0,0.074
786.5,0.074
786.0,0.074
785.5,0.074
785.0,0.074
784.5,0.074
784.0,0.075
783.5,0.075
783.0,0.075
782.5,0.075
782.0,0.075
781.5,0.075
781.0,0.075
780.5,0.075
780.0,0.075
779.5,0.075
779.0,0.075
778.5,0.075
778.0,0.075
777.5,0.075
777.0,0.075
776.5,0.075
776.0,0.075
775.5,0.075
775.0,0.075
774.5,0.076
774.0,0.076
773.5,0.076
773.0,0.076
772.5,0.076
772.0,0.076
771.5,0.076
771.0,0.076
770.5,0.076
770.0,0.076
769.5,0.076
769.0,0.076
768.5,0.076
768.0,0.076
767.5,0.076
767.0,0.077
766.5,0.077
766.0,0.076
765.5,0.077
765.0,0.077
764.5,0.077
764.0,0.077
763.5,0.077
763.0,0.077
762.5,0.077
762.0,0.077
761.5,0.077
761.0,0.077
760.5,0.077
760.0,0.077
759.5,0.078
759.0,0.078
758.5,0.078
758.0,0.078
757.5,0.078
757.0,0.078
756.5,0.078
756.0,0.078
755.5,0.078
755.0,0.078
754.5,0.078
754.0,0.079
753.5,0.079
753.0,0.079
752.5,0.079
752.0,0.079
751.5,0.079
751.0,0.079
750.5,0.079
750.0,0.079
749.5,0.079
749.0,0.080
748.5,0.080
748.0,0.080
747.5,0.080
747.0,0.080
746.5,0.080
746.0,0.081
745.5,0.081
745.0,0.081
744.5,0.081
744.0,0.081
743.5,0.081
743.0,0.082
742.5,0.082
742.0,0.082
741.5,0.082
741.0,0.082
740.5,0.083
740.0,0.083
739.5,0.083
739.0,0.083
738.5,0.083
738.0,0.084
737.5,0.084
737.0,0.084
736.5,0.084
736.0,0.084
735.5,0.085
735.0,0.085
734.5,0.085
734.0,0.085
733.5,0.085
733.0,0.086
732.5,0.086
732.0,0.086
731.5,0.086
731.0,0.087
730.5,0.087
730.0,0.087
729.5,0.087
729.0,0.088
728.5,0.088
728.0,0.089
727.5,0.089
727.0,0.089
726.5,0.090
726.0,0.090
725.5,0.091
725.0,0.092
724.5,0.092
724.0,0.093
723.5,0.094
723.0,0.094
722.5,0.095
722.0,0.096
721.5,0.097
721.0,0.098
720.5,0.099
720.0,0.100
719.5,0.101
719.0,0.102
718.5,0.103
718.0,0.104
717.5,0.105
717.0,0.107
716.5,0.108
716.0,0.109
715.5,0.111
715.0,0.112
714.5,0.114
714.0,0.115
713.5,0.117
713.0,0.119
712.5,0.121
712.0,0.122
711.5,0.124
711.0,0.126
710.5,0.128
710.0,0.131
709.5,0.133
709.0,0.135
708.5,0.138
708.0,0.141
707.5,0.144
707.0,0.147
706.5,0.150
706.0,0.153
705.5,0.156
705.0,0.159
704.5,0.163
704.0,0.166
703.5,0.170
703.0,0.174
702.5,0.178
702.0,0.182
701.5,0.186
701.0,0.190
700.5,0.195
700.0,0.199
699.5,0.204
699.0,0.210
698.5,0.215
698.0,0.221
697.5,0.227
697.0,0.233
696.5,0.239
696.0,0.245
695.5,0.252
695.0,0.258
694.5,0.265
694.0,0.273
693.5,0.280
693.0,0.288
692.5,0.296
692.0,0.304
691.5,0.313
691.0,0.322
690.5,0.331
690.0,0.341
689.5,0.352
689.0,0.362
688.5,0.373
688.0,0.384
687.5,0.395
687.0,0.407
686.5,0.420
686.0,0.433
685.5,0.447
685.0,0.461
684.5,0.475
684.0,0.489
683.5,0.504
683.0,0.520
682.5,0.535
682.0,0.552
681.5,0.569
681.0,0.586
680.5,0.605
680.0,0.623
679.5,0.643
679.0,0.663
678.5,0.683
678.0,0.705
677.5,0.726
677.0,0.748
676.5,0.771
676.0,0.794
675.5,0.817
675.0,0.840
674.5,0.865
674.0,0.891
673.5,0.917
673.0,0.944
672.5,0.972
672.0,1.001
671.5,1.032
671.0,1.064
670.5,1.096
670.0,1.128
669.5,1.161
669.0,1.195
668.5,1.230
668.0,1.265
667.5,1.301
667.0,1.337
666.5,1.375
666.0,1.412
665.5,1.450
665.0,1.489
664.5,1.528
664.0,1.567
663.5,1.605
663.0,1.643
662.5,1.681
662.0,1.721
661.5,1.761
661.0,1.801
660.5,1.841
660.0,1.880
659.5,1.918
659.0,1.957
658.5,1.994
658.0,2.031
657.5,2.066
657.0,2.099
656.5,2.130
656.0,2.158
655.5,2.186
655.0,2.211
654.5,2.235
654.0,2.257
653.5,2.278
653.0,2.297
652.5,2.314
652.0,2.329
651.5,2.343
651.0,2.355
650.5,2.359
650.0,2.343
649.5,2.326
649.0,2.328
648.5,2.334
648.0,2.338
647.5,2.341
647.0,2.343
646.5,2.344
646.0,2.344
645.5,2.343
645.0,2.341
644.5,2.338
644.0,2.335
643.5,2.331
643.0,2.326
642.5,2.321
642.0,2.315
641.5,2.310
641.0,2.304
640.5,2.298
640.0,2.293
639.5,2.287
639.0,2.283
638.5,2.279
638.0,2.276
637.5,2.273
637.0,2.272
636.5,2.271
636.0,2.271
635.5,2.272
635.0,2.273
634.5,2.275
634.0,2.277
633.5,2.280
633.0,2.282
632.5,2.285
632.0,2.288
631.5,2.290
631.0,2.292
630.5,2.294
630.0,2.296
629.5,2.297
629.0,2.298
628.5,2.298
628.0,2.299
627.5,2.299
627.0,2.299
626.5,2.298
626.0,2.298
625.5,2.298
625.0,2.297
624.5,2.297
624.0,2.296
623.5,2.295
623.0,2.295
622.5,2.294
622.0,2.294
621.5,2.293
621.0,2.292
620.5,2.291
620.0,2.291
619.5,2.290
619.0,2.289
618.5,2.288
618.0,2.287
617.5,2.286
617.0,2.286
616.5,2.284
616.0,2.283
615.5,2.283
615.0,2.282
614.5,2.281
614.0,2.280
613.5,2.279
613.0,2.278
612.5,2.277
612.0,2.276
611.5,2.275
611.0,2.274
610.5,2.273
610.0,2.272
609.5,2.271
609.0,2.270
608.5,2.269
608.0,2.268
607.5,2.267
607.0,2.266
606.5,2.264
606.0,2.263
605.5,2.262
605.0,2.261
604.5,2.260
604.0,2.259
603.5,2.257
603.0,2.256
602.5,2.255
602.0,2.254
601.5,2.253
601.0,2.251
600.5,2.250
600.0,2.249
599.5,2.248
599.0,2.247
598.5,2.245
598.0,2.244
597.5,2.243
597.0,2.242
596.5,2.240
596.0,2.239
595.5,2.238
595.0,2.237
594.5,2.235
594.0,2.234
593.5,2.232
593.0,2.231
592.5,2.230
592.0,2.228
591.5,2.227
591.0,2.226
590.5,2.225
590.0,2.223
589.5,2.222
589.0,2.220
588.5,2.219
588.0,2.217
587.5,2.216
587.0,2.215
586.5,2.213
586.0,2.212
585.5,2.210
585.0,2.209
584.5,2.207
584.0,2.206
583.5,2.205
583.0,2.203
582.5,2.202
582.0,2.200
581.5,2.198
581.0,2.197
580.5,2.196
580.0,2.194
579.5,2.193
579.0,2.191
578.5,2.190
578.0,2.188
577.5,2.186
577.0,2.185
576.5,2.183
576.0,2.181
575.5,2.180
575.0,2.178
574.5,2.176
574.0,2.174
573.5,2.172
573.0,2.170
572.5,2.169
572.0,2.167
571.5,2.165
571.0,2.163
570.5,2.161
570.0,2.159
569.5,2.157
569.0,2.155
568.5,2.153
568.0,2.151
567.5,2.149
567.0,2.147
566.5,2.144
566.0,2.142
565.5,2.140
565.0,2.138
564.5,2.136
564.0,2.133
563.5,2.131
563.0,2.128
562.5,2.126
562.0,2.123
561.5,2.121
561.0,2.118
560.5,2.115
560.0,2.112
559.5,2.109
559.0,2.106
558.5,2.103
558.0,2.100
557.5,2.097
557.0,2.094
556.5,2.091
556.0,2.087
555.5,2.084
555.0,2.080
554.5,2.076
554.0,2.073
553.5,2.069
553.0,2.066
552.5,2.062
552.0,2.058
551.5,2.054
551.0,2.050
550.5,2.045
550.0,2.041
549.5,2.036
549.0,2.031
548.5,2.026
548.0,2.021
547.5,2.017
547.0,2.012
546.5,2.007
546.0,2.002
545.5,1.997
545.0,1.992
544.5,1.987
544.0,1.982
543.5,1.977
543.0,1.971
542.5,1.965
542.0,1.960
541.5,1.954
541.0,1.949
540.5,1.943
540.0,1.937
539.5,1.931
539.0,1.925
538.5,1.919
538.0,1.913
537.5,1.907
537.0,1.901
536.5,1.978
536.0,2.181
535.5,2.382
535.0,2.395
534.5,2.387
534.0,2.379
533.5,2.371
533.0,2.363
532.5,2.356
532.0,2.349
531.5,2.343
531.0,2.338
530.5,2.332
530.0,2.327
529.5,2.324
529.0,2.345
528.5,2.367
528.0,2.373
527.5,2.369
527.0,2.365
526.5,2.361
526.0,2.358
525.5,2.355
525.0,2.353
524.5,2.350
524.0,2.349
523.5,2.347
523.0,2.345
522.5,2.345
522.0,2.344
521.5,2.343
521.0,2.344
520.5,2.344
520.0,2.345
519.5,2.345
519.0,2.347
518.5,2.348
518.0,2.350
517.5,2.352
517.0,2.353
516.5,2.355
516.0,2.359
515.5,2.362
515.0,2.366
514.5,2.370
514.0,2.374
513.5,2.378
513.0,2.382
512.5,2.386
512.0,2.391
511.5,2.397
511.0,2.403
510.5,2.409
510.0,2.415
509.5,2.421
509.0,2.428
508.5,2.434
508.0,2.442
507.5,2.449
507.0,2.457
506.5,2.464
506.0,2.472
505.5,2.479
505.0,2.487
504.5,2.496
504.0,2.505
503.5,2.513
503.0,2.522
502.5,2.532
502.0,2.539
501.5,2.548
501.0,2.556
500.5,2.565
500.0,2.574
499.5,2.582
499.0,2.591
498.5,2.602
498.0,2.611
497.5,2.618
497.0,2.627
496.5,2.638
496.0,2.647
495.5,2.655
495.0,2.663
494.5,2.673
494.0,2.683
493.5,2.692
493.0,2.703
492.5,2.711
492.0,2.720
491.5,2.729
491.0,2.738
490.5,2.749
490.0,2.759
489.5,2.769
489.0,2.776
488.5,2.784
488.0,2.793
487.5,2.801
487.0,2.809
486.5,2.817
486.0,2.825
485.5,2.835
485.0,2.842
484.5,2.849
484.0,2.858
483.5,2.865
483.0,2.872
482.5,2.876
482.0,2.885
481.5,2.893
481.0,2.898
480.5,2.902
480.0,2.905
479.5,2.914
479.0,2.924
478.5,2.927
478.0,2.931
477.5,2.939
477.0,2.942
476.5,2.947
476.0,2.951
475.5,2.954
475.0,2.955
474.5,2.958
474.0,2.959
473.5,2.959
473.0,2.963
472.5,2.967
472.0,2.967
471.5,2.971
471.0,2.970
470.5,2.968
470.0,2.969
469.5,2.973
469.0,2.978
468.5,2.979
468.0,2.979
467.5,2.980
467.0,2.981
466.5,2.985
466.0,2.981
465.5,2.981
465.0,2.979
464.5,2.981
464.0,2.982
463.5,2.980
463.0,2.975
462.5,2.974
462.0,2.969
461.5,2.962
461.0,2.957
460.5,2.954
460.0,2.950
459.5,2.947
459.0,2.945
458.5,2.941
458.0,2.934
457.5,2.927
457.0,2.920
456.5,2.918
456.0,2.916
455.5,2.917
455.0,2.918
454.5,2.920
454.0,2.920
453.5,2.919
453.0,2.920
452.5,2.920
452.0,2.924
451.5,2.931
451.0,2.937
450.5,2.937
450.0,2.943
449.5,2.950
449.0,2.955
448.5,2.958
448.0,2.959
447.5,2.970
447.0,2.978
446.5,2.984
446.0,2.986
445.5,2.989
445.0,2.994
444.5,2.994
444.0,2.997
443.5,2.999
443.0,3.004
442.5,3.008
442.0,3.011
441.5,3.012
441.0,3.015
440.5,3.012
440.0,3.012
439.5,3.011
439.0,3.007
438.5,3.006
438.0,3.003
437.5,2.996
437.0,2.991
436.5,2.986
436.0,2.980
435.5,2.977
435.0,2.971
434.5,2.967
434.0,2.959
433.5,2.954
433.0,2.953
432.5,2.949
432.0,2.941
431.5,2.931
431.0,2.926
430.5,2.919
430.0,2.918
429.5,2.914
429.0,2.908
428.5,2.898
428.0,2.892
427.5,2.885
427.0,2.879
426.5,2.871
426.0,2.870
425.5,2.865
425.0,2.862
424.5,2.858
424.0,2.854
423.5,2.850
423.0,2.846
422.5,2.841
422.0,2.838
421.5,2.833
421.0,2.831
420.5,2.821
420.0,2.813
419.5,2.809
419.0,2.809
418.5,2.799
418.0,2.790
417.5,2.785
417.0,2.783
416.5,2.884
416.0,3.128
415.5,3.372
415.0,3.394
414.5,3.435
414.0,3.439
413.5,3.424
413.0,3.408
412.5,3.405
412.0,3.405
411.5,3.391
411.0,3.359
410.5,3.384
410.0,3.401
409.5,3.407
409.0,3.386
408.5,3.369
408.0,3.375
407.5,3.371
407.0,3.382
406.5,3.373
406.0,3.368
405.5,3.363
405.0,3.368
404.5,3.385
404.0,3.368
403.5,3.375
403.0,3.423
402.5,3.439
402.0,3.436
401.5,3.444
401.0,3.403
400.5,3.372
400.0,3.358
399.5,3.372
399.0,3.384
398.5,3.407
398.0,3.387
397.5,3.342
397.0,3.328
396.5,3.297
396.0,3.298
395.5,3.314
395.0,3.336
394.5,3.349
394.0,3.327
393.5,3.331
393.0,3.330
392.5,3.274
392.0,3.267
391.5,3.251
391.0,3.245
390.5,3.220
390.0,3.219
389.5,3.211
389.0,3.226
388.5,3.219
388.0,3.211
387.5,3.180
387.0,3.158
386.5,3.134
386.0,3.127
385.5,3.118
385.0,3.128
384.5,3.106
384.0,3.097
383.5,3.069
383.0,3.069
382.5,3.061
382.0,3.036
381.5,2.988
381.0,2.974
380.5,2.948
380.0,2.929
379.5,2.941
379.0,2.924
378.5,2.924
378.0,2.887
377.5,2.877
377.0,2.875
376.5,2.864
376.0,2.847
375.5,2.835
375.0,2.798
374.5,2.777
374.0,2.762
373.5,2.748
373.0,2.725
372.5,2.700
372.0,2.702
371.5,2.688
371.0,2.663
370.5,2.652
370.0,2.634
369.5,2.612
369.0,2.602
368.5,2.593
368.0,2.563
367.5,2.539
367.0,2.530
366.5,2.512
366.0,2.497
365.5,2.505
365.0,2.500
364.5,2.507
364.0,2.495
363.5,2.472
363.0,2.455
362.5,2.442
362.0,2.431
361.5,2.420
361.0,2.409
360.5,2.388
360.0,2.380
359.5,2.371
359.0,2.368
358.5,2.346
358.0,2.332
357.5,2.326
357.0,2.318
356.5,2.310
356.0,2.299
355.5,2.291
355.0,2.280
354.5,2.268
354.0,2.256
353.5,2.237
353.0,2.232
352.5,2.220
352.0,2.207
351.5,2.195
351.0,2.184
350.5,2.171
350.0,2.168
349.5,2.164
349.0,2.156
348.5,2.147
348.0,2.137
347.5,2.132
347.0,2.122
346.5,2.118
346.0,2.111
345.5,2.102
345.0,2.098
344.5,2.090
344.0,2.084
343.5,2.078
343.0,2.078
342.5,2.075
342.0,2.072
341.5,2.064
341.0,2.063
340.5,2.056
340.0,2.040
339.5,2.029
339.0,2.027
338.5,2.020
338.0,2.025
337.5,2.033
337.0,2.039
336.5,2.041
336.0,2.050
335.5,2.056
335.0,2.068
334.5,2.079
334.0,2.090
333.5,2.103
333.0,2.121
332.5,2.135
332.0,2.149
331.5,2.164
331.0,2.186
330.5,2.206
330.0,2.229
329.5,2.257
329.0,2.275
328.5,2.300
328.0,2.322
327.5,2.342
327.0,2.378
326.5,2.418
326.0,2.445
325.5,2.479
325.0,2.518
324.5,2.563
324.0,2.608
323.5,2.631
323.0,2.679
322.5,2.700
322.0,2.750
321.5,2.808
321.0,2.889
320.5,2.926
320.0,2.992
319.5,3.021
319.0,3.008
318.5,3.051
318.0,3.084
317.5,3.174
317.0,3.208
316.5,3.208
316.0,3.238
315.5,3.326
315.0,3.449
314.5,3.499
314.0,3.489
313.5,3.468
313.0,3.440
312.5,3.525
312.0,3.456
311.5,3.519
311.0,3.474
310.5,3.335
310.0,3.400
309.5,3.460
309.0,3.467
308.5,3.534
308.0,3.528
307.5,3.581
307.0,3.504
306.5,3.561
306.0,3.481
305.5,3.350
305.0,3.263
304.5,3.259
304.0,3.248
303.5,3.210
303.0,3.194
302.5,3.184
302.0,3.205
301.5,3.237
301.0,3.240
300.5,3.228
300.0,3.268
299.5,3.309
299.0,3.309
298.5,3.338
298.0,3.398
297.5,3.389
297.0,3.364
296.5,3.417
296.0,3.480
295.5,3.460
295.0,3.559
294.5,3.593
294.0,3.599
293.5,3.666
293.0,3.657
292.5,3.618
292.0,3.582
291.5,3.599
291.0,3.753
290.5,3.764
290.0,3.729
289.5,3.777
289.0,3.764
288.5,3.825
288.0,3.837
287.5,3.824
287.0,3.829
286.5,3.715
286.0,3.740
285.5,3.808
285.0,3.860
284.5,3.839
284.0,3.848
283.5,3.862
283.0,3.778
282.5,3.722
282.0,3.713
281.5,3.778
281.0,3.830
280.5,3.786
280.0,3.873
279.5,3.930
279.0,3.895
278.5,3.917
278.0,3.837
277.5,3.766
277.0,3.708
276.5,3.642
276.0,3.758
275.5,3.730
275.0,3.766
274.5,3.822
274.0,3.876
273.5,3.862
273.0,3.849
272.5,3.895
272.0,3.831
271.5,3.729
271.0,3.638
270.5,3.759
270.0,3.811
269.5,3.861
269.0,3.871
268.5,3.866
268.0,3.861
267.5,3.853
267.0,3.820
266.5,3.783
266.0,3.877
265.5,3.928
265.0,3.915
264.5,3.865
264.0,3.892
263.5,3.976
263.0,3.938
262.5,3.833
262.0,3.766
261.5,3.857
261.0,3.957
260.5,3.966
260.0,4.000
259.5,3.984
259.0,3.949
258.5,3.923
258.0,3.923
257.5,3.941
257.0,3.940
256.5,3.899
256.0,3.846
255.5,3.883
255.0,3.972
254.5,3.956
254.0,3.941
253.5,3.904
253.0,3.945
252.5,3.974
252.0,3.961
251.5,3.930
251.0,3.914
250.5,3.916
250.0,3.948
249.5,3.937
249.0,3.946
248.5,3.966
248.0,3.998
247.5,3.973
247.0,3.973
246.5,3.956
246.0,3.934
245.5,3.937
245.0,3.920
244.5,3.939
244.0,3.967
243.5,3.974
243.0,3.971
242.5,3.958
242.0,3.955
241.5,3.939
241.0,3.957
240.5,3.949
240.0,3.926
239.5,3.906
239.0,3.930
238.5,3.953
238.0,3.990
237.5,3.970
237.0,3.961
236.5,3.981
236.0,3.996
235.5,3.968
235.0,3.964
234.5,3.960
234.0,3.994
233.5,3.990
233.0,3.971
232.5,3.961
232.0,3.961
231.5,3.985
231.0,3.985
230.5,3.993
230.0,3.993
229.5,3.980
229.0,3.976
228.5,3.971
228.0,3.968
227.5,3.918
227.0,3.912
226.5,3.956
226.0,3.977
225.5,3.971
225.0,3.959
224.5,3.945
224.0,3.972
223.5,3.985
223.0,3.965
222.5,3.965
222.0,3.988
221.5,4.000
221.0,3.991
220.5,3.987
220.0,3.993
219.5,3.987
219.0,3.991
218.5,4.000
218.0,4.000
217.5,4.000
217.0,3.987
216.5,3.949
216.0,3.958
215.5,3.958
215.0,3.979
214.5,3.950
214.0,3.971
213.5,3.960
213.0,3.982
212.5,3.966
212.0,3.960
211.5,3.945
211.0,3.934
210.5,3.939
210.0,3.973
209.5,3.977
209.0,3.976
208.5,3.998
208.0,3.966
207.5,3.924
207.0,3.932
206.5,3.943
206.0,3.967
205.5,3.982
205.0,3.991
204.5,4.000
204.0,3.997
203.5,3.992
203.0,3.979
202.5,3.971
202.0,3.958
201.5,3.939
201.0,3.943
200.5,3.912
200.0,3.855
