"PHT04S32.SPC"
WL/nm,Abs
900.0,0.145
899.5,0.145
899.0,0.145
898.5,0.144
898.0,0.144
897.5,0.145
897.0,0.145
896.5,0.145
896.0,0.145
895.5,0.145
895.0,0.145
894.5,0.145
894.0,0.145
893.5,0.145
893.0,0.145
892.5,0.144
892.0,0.144
891.5,0.144
891.0,0.144
890.5,0.144
890.0,0.143
889.5,0.143
889.0,0.143
888.5,0.143
888.0,0.143
887.5,0.144
887.0,0.144
886.5,0.145
886.0,0.145
885.5,0.145
885.0,0.146
884.5,0.146
884.0,0.147
883.5,0.147
883.0,0.147
882.5,0.147
882.0,0.148
881.5,0.148
881.0,0.148
880.5,0.148
880.0,0.149
879.5,0.149
879.0,0.149
878.5,0.149
878.0,0.149
877.5,0.150
877.0,0.150
876.5,0.150
876.0,0.150
875.5,0.150
875.0,0.149
874.5,0.149
874.0,0.149
873.5,0.149
873.0,0.149
872.5,0.149
872.0,0.148
871.5,0.148
871.0,0.147
870.5,0.147
870.0,0.147
869.5,0.147
869.0,0.146
868.5,0.146
868.0,0.146
867.5,0.146
867.0,0.145
866.5,0.145
866.0,0.145
865.5,0.145
865.0,0.144
864.5,0.144
864.0,0.144
863.5,0.144
863.0,0.144
862.5,0.144
862.0,0.144
861.5,0.144
861.0,0.144
860.5,0.144
860.0,0.144
859.5,0.144
859.0,0.143
858.5,0.143
858.0,0.143
857.5,0.143
857.0,0.143
856.5,0.143
856.0,0.143
855.5,0.143
855.0,0.143
854.5,0.143
854.0,0.143
853.5,0.143
853.0,0.143
852.5,0.143
852.0,0.143
851.5,0.143
851.0,0.143
850.5,0.143
850.0,0.143
849.5,0.143
849.0,0.143
848.5,0.143
848.0,0.143
847.5,0.143
847.0,0.143
846.5,0.143
846.0,0.144
845.5,0.144
845.0,0.144
844.5,0.144
844.0,0.144
843.5,0.144
843.0,0.144
842.5,0.144
842.0,0.144
841.5,0.144
841.0,0.144
840.5,0.144
840.0,0.144
839.5,0.144
839.0,0.144
838.5,0.144
838.0,0.144
837.5,0.144
837.0,0.144
836.5,0.144
836.0,0.144
835.5,0.144
835.0,0.144
834.5,0.144
834.0,0.144
833.5,0.144
833.0,0.144
832.5,0.144
832.0,0.144
831.5,0.144
831.0,0.144
830.5,0.144
830.0,0.143
829.5,0.143
829.0,0.143
828.5,0.143
828.0,0.143
827.5,0.143
827.0,0.142
826.5,0.142
826.0,0.142
825.5,0.142
825.0,0.142
824.5,0.142
824.0,0.142
823.5,0.142
823.0,0.142
822.5,0.142
822.0,0.142
821.5,0.142
821.0,0.142
820.5,0.142
820.0,0.142
819.5,0.142
819.0,0.142
818.5,0.142
818.0,0.142
817.5,0.142
817.0,0.142
816.5,0.142
816.0,0.143
815.5,0.143
815.0,0.143
814.5,0.143
814.0,0.143
813.5,0.143
813.0,0.143
812.5,0.143
812.0,0.143
811.5,0.144
811.0,0.144
810.5,0.144
810.0,0.144
809.5,0.144
809.0,0.144
808.5,0.144
808.0,0.144
807.5,0.145
807.0,0.145
806.5,0.145
806.0,0.145
805.5,0.145
805.0,0.145
804.5,0.145
804.0,0.145
803.5,0.146
803.0,0.146
802.5,0.146
802.0,0.146
801.5,0.146
801.0,0.147
800.5,0.147
800.0,0.147
799.5,0.147
799.0,0.147
798.5,0.147
798.0,0.147
797.5,0.147
797.0,0.148
796.5,0.148
796.0,0.148
795.5,0.148
795.0,0.148
794.5,0.149
794.0,0.149
793.5,0.149
793.0,0.149
792.5,0.149
792.0,0.150
791.5,0.150
791.0,0.150
790.5,0.150
790.0,0.150
789.5,0.150
789.0,0.151
788.5,0.151
788.0,0.151
787.5,0.151
787.0,0.152
786.5,0.152
786.0,0.152
785.5,0.152
785.0,0.152
784.5,0.153
784.0,0.153
783.5,0.153
783.0,0.153
782.5,0.153
782.0,0.153
781.5,0.154
781.0,0.154
780.5,0.154
780.0,0.154
779.5,0.154
779.0,0.155
778.5,0.155
778.0,0.155
777.5,0.155
777.0,0.156
776.5,0.156
776.0,0.156
775.5,0.156
775.0,0.156
774.5,0.156
774.0,0.157
773.5,0.157
773.0,0.157
772.5,0.157
772.0,0.158
771.5,0.158
771.0,0.158
770.5,0.158
770.0,0.159
769.5,0.159
769.0,0.159
768.5,0.159
768.0,0.159
767.5,0.160
767.0,0.160
766.5,0.160
766.0,0.160
765.5,0.160
765.0,0.160
764.5,0.161
764.0,0.161
763.5,0.161
763.0,0.161
762.5,0.162
762.0,0.162
761.5,0.162
761.0,0.162
760.5,0.162
760.0,0.162
759.5,0.163
759.0,0.163
758.5,0.163
758.0,0.163
757.5,0.164
757.0,0.164
756.5,0.164
756.0,0.164
755.5,0.164
755.0,0.165
754.5,0.165
754.0,0.165
753.5,0.166
753.0,0.166
752.5,0.166
752.0,0.166
751.5,0.167
751.0,0.167
750.5,0.167
750.0,0.167
749.5,0.167
749.0,0.168
748.5,0.168
748.0,0.168
747.5,0.169
747.0,0.169
746.5,0.169
746.0,0.169
745.5,0.169
745.0,0.170
744.5,0.170
744.0,0.170
743.5,0.171
743.0,0.171
742.5,0.171
742.0,0.172
741.5,0.172
741.0,0.172
740.5,0.172
740.0,0.173
739.5,0.173
739.0,0.173
738.5,0.174
738.0,0.174
737.5,0.174
737.0,0.174
736.5,0.175
736.0,0.175
735.5,0.175
735.0,0.175
734.5,0.176
734.0,0.176
733.5,0.176
733.0,0.176
732.5,0.176
732.0,0.177
731.5,0.177
731.0,0.177
730.5,0.178
730.0,0.178
729.5,0.178
729.0,0.179
728.5,0.179
728.0,0.179
727.5,0.180
727.0,0.180
726.5,0.181
726.0,0.181
725.5,0.182
725.0,0.182
724.5,0.183
724.0,0.183
723.5,0.184
723.0,0.184
722.5,0.185
722.0,0.186
721.5,0.186
721.0,0.187
720.5,0.188
720.0,0.189
719.5,0.189
719.0,0.190
718.5,0.191
718.0,0.192
717.5,0.193
717.0,0.194
716.5,0.195
716.0,0.196
715.5,0.197
715.0,0.198
714.5,0.199
714.0,0.200
713.5,0.201
713.0,0.202
712.5,0.204
712.0,0.205
711.5,0.206
711.0,0.207
710.5,0.209
710.0,0.210
709.5,0.212
709.0,0.213
708.5,0.215
708.0,0.217
707.5,0.219
707.0,0.221
706.5,0.222
706.0,0.224
705.5,0.226
705.0,0.228
704.5,0.230
704.0,0.233
703.5,0.235
703.0,0.237
702.5,0.240
702.0,0.242
701.5,0.245
701.0,0.247
700.5,0.250
700.0,0.253
699.5,0.255
699.0,0.259
698.5,0.262
698.0,0.265
697.5,0.269
697.0,0.272
696.5,0.276
696.0,0.279
695.5,0.283
695.0,0.287
694.5,0.291
694.0,0.295
693.5,0.299
693.0,0.304
692.5,0.308
692.0,0.313
691.5,0.318
691.0,0.323
690.5,0.328
690.0,0.334
689.5,0.340
689.0,0.345
688.5,0.351
688.0,0.357
687.5,0.364
687.0,0.370
686.5,0.377
686.0,0.384
685.5,0.392
685.0,0.400
684.5,0.407
684.0,0.415
683.5,0.423
683.0,0.431
682.5,0.440
682.0,0.449
681.5,0.458
681.0,0.467
680.5,0.477
680.0,0.487
679.5,0.498
679.0,0.508
678.5,0.519
678.0,0.531
677.5,0.542
677.0,0.554
676.5,0.566
676.0,0.578
675.5,0.590
675.0,0.603
674.5,0.616
674.0,0.629
673.5,0.643
673.0,0.658
672.5,0.673
672.0,0.688
671.5,0.704
671.0,0.721
670.5,0.738
670.0,0.755
669.5,0.773
669.0,0.791
668.5,0.810
668.0,0.829
667.5,0.848
667.0,0.868
666.5,0.888
666.0,0.909
665.5,0.930
665.0,0.952
664.5,0.974
664.0,0.996
663.5,1.018
663.0,1.040
662.5,1.062
662.0,1.086
661.5,1.111
661.0,1.136
660.5,1.161
660.0,1.187
659.5,1.213
659.0,1.240
658.5,1.268
658.0,1.296
657.5,1.324
657.0,1.352
656.5,1.380
656.0,1.407
655.5,1.435
655.0,1.464
654.5,1.492
654.0,1.522
653.5,1.551
653.0,1.581
652.5,1.611
652.0,1.641
651.5,1.672
651.0,1.702
650.5,1.718
650.0,1.723
649.5,1.730
649.0,1.758
648.5,1.787
648.0,1.815
647.5,1.842
647.0,1.867
646.5,1.892
646.0,1.916
645.5,1.940
645.0,1.963
644.5,1.985
644.0,2.005
643.5,2.024
643.0,2.042
642.5,2.059
642.0,2.074
641.5,2.089
641.0,2.102
640.5,2.115
640.0,2.127
639.5,2.137
639.0,2.148
638.5,2.158
638.0,2.167
637.5,2.176
637.0,2.185
636.5,2.194
636.0,2.203
635.5,2.211
635.0,2.220
634.5,2.228
634.0,2.236
633.5,2.244
633.0,2.251
632.5,2.258
632.0,2.265
631.5,2.271
631.0,2.277
630.5,2.282
630.0,2.287
629.5,2.291
629.0,2.295
628.5,2.298
628.0,2.301
627.5,2.303
627.0,2.305
626.5,2.307
626.0,2.308
625.5,2.309
625.0,2.310
624.5,2.311
624.0,2.312
623.5,2.313
623.0,2.313
622.5,2.314
622.0,2.314
621.5,2.314
621.0,2.314
620.5,2.314
620.0,2.314
619.5,2.314
619.0,2.314
618.5,2.313
618.0,2.312
617.5,2.312
617.0,2.311
616.5,2.311
616.0,2.310
615.5,2.309
615.0,2.308
614.5,2.307
614.0,2.305
613.5,2.304
613.0,2.303
612.5,2.302
612.0,2.301
611.5,2.299
611.0,2.298
610.5,2.296
610.0,2.295
609.5,2.293
609.0,2.291
608.5,2.289
608.0,2.287
607.5,2.285
607.0,2.283
606.5,2.281
606.0,2.279
605.5,2.277
605.0,2.274
604.5,2.272
604.0,2.269
603.5,2.267
603.0,2.264
602.5,2.261
602.0,2.259
601.5,2.256
601.0,2.253
600.5,2.250
600.0,2.247
599.5,2.243
599.0,2.240
598.5,2.236
598.0,2.233
597.5,2.229
597.0,2.225
596.5,2.221
596.0,2.217
595.5,2.214
595.0,2.209
594.5,2.205
594.0,2.201
593.5,2.196
593.0,2.192
592.5,2.188
592.0,2.183
591.5,2.178
591.0,2.173
590.5,2.168
590.0,2.163
589.5,2.158
589.0,2.153
588.5,2.148
588.0,2.142
587.5,2.137
587.0,2.131
586.5,2.125
586.0,2.120
585.5,2.114
585.0,2.109
584.5,2.103
584.0,2.096
583.5,2.090
583.0,2.084
582.5,2.078
582.0,2.071
581.5,2.065
581.0,2.059
580.5,2.052
580.0,2.046
579.5,2.039
579.0,2.032
578.5,2.026
578.0,2.019
577.5,2.012
577.0,2.005
576.5,1.998
576.0,1.991
575.5,1.984
575.0,1.977
574.5,1.969
574.0,1.962
573.5,1.955
573.0,1.948
572.5,1.941
572.0,1.934
571.5,1.926
571.0,1.919
570.5,1.912
570.0,1.905
569.5,1.898
569.0,1.890
568.5,1.882
568.0,1.874
567.5,1.867
567.0,1.859
566.5,1.852
566.0,1.845
565.5,1.838
565.0,1.831
564.5,1.824
564.0,1.818
563.5,1.811
563.0,1.804
562.5,1.797
562.0,1.790
561.5,1.782
561.0,1.776
560.5,1.769
560.0,1.763
559.5,1.756
559.0,1.750
558.5,1.743
558.0,1.737
557.5,1.731
557.0,1.725
556.5,1.719
556.0,1.714
555.5,1.707
555.0,1.702
554.5,1.696
554.0,1.691
553.5,1.686
553.0,1.681
552.5,1.676
552.0,1.672
551.5,1.667
551.0,1.663
550.5,1.659
550.0,1.655
549.5,1.651
549.0,1.646
548.5,1.642
548.0,1.639
547.5,1.636
547.0,1.633
546.5,1.630
546.0,1.627
545.5,1.625
545.0,1.622
544.5,1.620
544.0,1.618
543.5,1.616
543.0,1.615
542.5,1.613
542.0,1.612
541.5,1.611
541.0,1.610
540.5,1.609
540.0,1.608
539.5,1.607
539.0,1.607
538.5,1.607
538.0,1.607
537.5,1.607
537.0,1.607
536.5,1.633
536.0,1.700
535.5,1.768
535.0,1.778
534.5,1.782
534.0,1.786
533.5,1.790
533.0,1.794
532.5,1.799
532.0,1.804
531.5,1.809
531.0,1.814
530.5,1.819
530.0,1.825
529.5,1.840
529.0,1.873
528.5,1.907
528.0,1.920
527.5,1.928
527.0,1.936
526.5,1.944
526.0,1.952
525.5,1.961
525.0,1.969
524.5,1.978
524.0,1.987
523.5,1.996
523.0,2.006
522.5,2.016
522.0,2.027
521.5,2.038
521.0,2.048
520.5,2.060
520.0,2.071
519.5,2.082
519.0,2.094
518.5,2.106
518.0,2.119
517.5,2.131
517.0,2.144
516.5,2.157
516.0,2.170
515.5,2.183
515.0,2.197
514.5,2.211
514.0,2.224
513.5,2.238
513.0,2.251
512.5,2.266
512.0,2.280
511.5,2.296
511.0,2.311
510.5,2.326
510.0,2.341
509.5,2.356
509.0,2.373
508.5,2.388
508.0,2.403
507.5,2.418
507.0,2.434
506.5,2.450
506.0,2.466
505.5,2.482
505.0,2.499
504.5,2.514
504.0,2.529
503.5,2.544
503.0,2.560
502.5,2.576
502.0,2.592
501.5,2.607
501.0,2.621
500.5,2.635
500.0,2.648
499.5,2.662
499.0,2.677
498.5,2.692
498.0,2.707
497.5,2.721
497.0,2.734
496.5,2.747
496.0,2.760
495.5,2.774
495.0,2.786
494.5,2.796
494.0,2.809
493.5,2.820
493.0,2.834
492.5,2.846
492.0,2.857
491.5,2.868
491.0,2.878
490.5,2.892
490.0,2.904
489.5,2.915
489.0,2.927
488.5,2.933
488.0,2.941
487.5,2.951
487.0,2.957
486.5,2.966
486.0,2.974
485.5,2.982
485.0,2.991
484.5,2.997
484.0,3.006
483.5,3.010
483.0,3.013
482.5,3.016
482.0,3.017
481.5,3.026
481.0,3.030
480.5,3.034
480.0,3.043
479.5,3.041
479.0,3.044
478.5,3.048
478.0,3.048
477.5,3.051
477.0,3.053
476.5,3.059
476.0,3.061
475.5,3.058
475.0,3.065
474.5,3.062
474.0,3.059
473.5,3.063
473.0,3.064
472.5,3.062
472.0,3.061
471.5,3.060
471.0,3.063
470.5,3.063
470.0,3.064
469.5,3.063
469.0,3.061
468.5,3.060
468.0,3.054
467.5,3.056
467.0,3.056
466.5,3.055
466.0,3.052
465.5,3.052
465.0,3.049
464.5,3.042
464.0,3.036
463.5,3.038
463.0,3.031
462.5,3.024
462.0,3.020
461.5,3.017
461.0,3.013
460.5,3.007
460.0,2.994
459.5,2.991
459.0,2.983
458.5,2.981
458.0,2.977
457.5,2.971
457.0,2.969
456.5,2.968
456.0,2.970
455.5,2.971
455.0,2.965
454.5,2.963
454.0,2.958
453.5,2.963
453.0,2.964
452.5,2.967
452.0,2.974
451.5,2.973
451.0,2.975
450.5,2.980
450.0,2.981
449.5,2.991
449.0,2.994
448.5,2.999
448.0,3.003
447.5,3.007
447.0,3.015
446.5,3.014
446.0,3.019
445.5,3.024
445.0,3.031
444.5,3.039
444.0,3.036
443.5,3.038
443.0,3.044
442.5,3.050
442.0,3.049
441.5,3.050
441.0,3.048
440.5,3.055
440.0,3.058
439.5,3.053
439.0,3.047
438.5,3.044
438.0,3.047
437.5,3.040
437.0,3.029
436.5,3.023
436.0,3.020
435.5,3.021
435.0,3.012
434.5,3.008
434.0,2.999
433.5,2.994
433.0,2.988
432.5,2.986
432.0,2.977
431.5,2.972
431.0,2.963
430.5,2.960
430.0,2.952
429.5,2.948
429.0,2.946
428.5,2.934
428.0,2.929
427.5,2.925
427.0,2.923
426.5,2.916
426.0,2.911
425.5,2.907
425.0,2.900
424.5,2.895
424.0,2.889
423.5,2.884
423.0,2.881
422.5,2.876
422.0,2.872
421.5,2.863
421.0,2.860
420.5,2.856
420.0,2.848
419.5,2.848
419.0,2.842
418.5,2.840
418.0,2.829
417.5,2.818
417.0,2.816
416.5,2.919
416.0,3.166
415.5,3.410
415.0,3.414
414.5,3.434
414.0,3.410
413.5,3.407
413.0,3.411
412.5,3.420
412.0,3.432
411.5,3.411
411.0,3.395
410.5,3.386
410.0,3.416
409.5,3.433
409.0,3.396
408.5,3.410
408.0,3.423
407.5,3.446
407.0,3.469
406.5,3.459
406.0,3.457
405.5,3.393
405.0,3.391
404.5,3.404
404.0,3.437
403.5,3.456
403.0,3.419
402.5,3.431
402.0,3.446
401.5,3.474
401.0,3.492
400.5,3.435
400.0,3.458
399.5,3.475
399.0,3.457
398.5,3.496
398.0,3.416
397.5,3.385
397.0,3.361
396.5,3.380
396.0,3.397
395.5,3.396
395.0,3.386
394.5,3.371
394.0,3.340
393.5,3.368
393.0,3.368
392.5,3.363
392.0,3.371
391.5,3.348
391.0,3.337
390.5,3.325
390.0,3.319
389.5,3.337
389.0,3.371
388.5,3.421
388.0,3.405
387.5,3.369
387.0,3.412
386.5,3.399
386.0,3.444
385.5,3.453
385.0,3.362
384.5,3.445
384.0,3.449
383.5,3.401
383.0,3.399
382.5,3.505
382.0,3.522
381.5,3.397
381.0,3.393
380.5,3.412
380.0,3.443
379.5,3.461
379.0,3.285
378.5,3.231
378.0,3.211
377.5,3.392
377.0,3.604
376.5,3.570
376.0,3.470
375.5,3.460
375.0,3.600
374.5,3.520
374.0,3.296
373.5,3.099
373.0,3.196
372.5,3.245
372.0,3.367
371.5,3.351
371.0,3.455
370.5,3.367
370.0,3.367
369.5,3.414
369.0,3.418
368.5,3.351
368.0,3.279
367.5,3.235
367.0,3.268
366.5,3.195
366.0,3.381
365.5,3.301
365.0,3.241
364.5,3.431
364.0,3.504
363.5,3.471
363.0,3.544
362.5,3.538
362.0,3.480
361.5,3.547
361.0,3.661
360.5,3.603
360.0,3.537
359.5,3.618
359.0,3.650
358.5,3.563
358.0,3.631
357.5,3.551
357.0,3.668
356.5,3.617
356.0,3.591
355.5,3.636
355.0,3.576
354.5,3.696
354.0,3.617
353.5,3.643
353.0,3.651
352.5,3.589
352.0,3.632
351.5,3.677
351.0,3.657
350.5,3.574
350.0,3.480
349.5,3.491
349.0,3.616
348.5,3.687
348.0,3.659
347.5,3.541
347.0,3.749
346.5,3.691
346.0,3.797
345.5,3.760
345.0,3.744
344.5,3.682
344.0,3.573
343.5,3.648
343.0,3.695
342.5,3.673
342.0,3.771
341.5,3.728
341.0,3.852
340.5,3.781
340.0,3.766
339.5,3.814
339.0,3.945
338.5,3.945
338.0,3.991
337.5,3.994
337.0,3.903
336.5,3.825
336.0,3.688
335.5,3.582
335.0,3.484
334.5,3.319
334.0,3.400
333.5,3.383
333.0,3.628
332.5,3.705
332.0,3.727
331.5,3.750
331.0,3.786
330.5,3.814
330.0,3.804
329.5,3.782
329.0,3.903
328.5,3.891
328.0,3.912
327.5,3.795
327.0,3.883
326.5,3.984
326.0,3.997
325.5,3.945
325.0,3.788
324.5,3.780
324.0,3.763
323.5,3.808
323.0,3.893
322.5,3.871
322.0,3.823
321.5,3.750
321.0,3.672
320.5,3.698
320.0,3.635
319.5,3.701
319.0,3.796
318.5,3.793
318.0,3.862
317.5,3.876
317.0,3.815
316.5,3.782
316.0,3.905
315.5,3.932
315.0,3.951
314.5,3.940
314.0,3.957
313.5,3.817
313.0,3.817
312.5,3.738
312.0,3.921
311.5,3.829
311.0,3.760
310.5,3.835
310.0,3.899
309.5,3.955
309.0,3.926
308.5,3.941
308.0,4.000
307.5,4.000
307.0,3.737
306.5,3.494
306.0,3.543
305.5,3.854
305.0,3.793
304.5,3.765
304.0,3.768
303.5,3.724
303.0,3.818
302.5,3.891
302.0,3.779
301.5,3.763
301.0,3.783
300.5,3.859
300.0,3.966
299.5,3.930
299.0,3.938
298.5,3.894
298.0,3.835
297.5,3.661
297.0,3.636
296.5,3.694
296.0,3.747
295.5,3.763
295.0,3.715
294.5,3.760
294.0,3.725
293.5,3.722
293.0,3.723
292.5,3.762
292.0,3.756
291.5,3.796
291.0,3.819
290.5,3.928
290.0,3.812
289.5,3.832
289.0,3.852
288.5,3.779
288.0,3.825
287.5,3.835
287.0,3.903
286.5,3.879
286.0,3.815
285.5,3.863
285.0,3.800
284.5,3.835
284.0,3.816
283.5,3.822
283.0,3.858
282.5,3.814
282.0,3.874
281.5,3.956
281.0,3.872
280.5,3.798
280.0,3.678
279.5,3.732
279.0,3.770
278.5,3.797
278.0,3.793
277.5,3.798
277.0,3.874
276.5,3.873
276.0,3.908
275.5,3.816
275.0,3.832
274.5,3.853
274.0,3.792
273.5,3.900
273.0,3.871
272.5,3.868
272.0,3.817
271.5,3.885
271.0,3.966
270.5,3.941
270.0,3.933
269.5,3.851
269.0,3.833
268.5,3.847
268.0,3.862
267.5,3.826
267.0,3.818
266.5,3.812
266.0,3.895
265.5,3.891
265.0,3.904
264.5,3.876
264.0,3.859
263.5,3.845
263.0,3.912
262.5,3.946
262.0,3.946
261.5,3.968
261.0,3.957
260.5,3.922
260.0,3.953
259.5,3.958
259.0,3.947
258.5,3.927
258.0,3.939
257.5,3.961
257.0,3.975
256.5,3.979
256.0,3.910
255.5,3.811
255.0,3.841
254.5,3.872
254.0,3.970
253.5,3.982
253.0,3.934
252.5,3.908
252.0,3.876
251.5,3.917
251.0,3.944
250.5,3.970
250.0,4.000
249.5,3.957
249.0,3.957
248.5,3.983
248.0,4.000
247.5,4.000
247.0,3.951
246.5,3.951
246.0,3.951
245.5,4.000
245.0,3.965
244.5,3.952
244.0,3.951
243.5,3.976
243.0,3.996
242.5,3.968
242.0,3.970
241.5,3.983
241.0,3.991
240.5,3.985
240.0,3.983
239.5,3.991
239.0,3.987
238.5,3.963
238.0,3.963
237.5,3.976
237.0,3.978
236.5,3.961
236.0,3.983
235.5,3.983
235.0,3.990
234.5,3.990
234.0,3.968
233.5,3.953
233.0,3.907
232.5,3.944
232.0,3.991
231.5,3.991
231.0,4.000
230.5,3.959
230.0,3.953
229.5,3.967
229.0,3.995
228.5,3.989
228.0,3.989
227.5,3.991
227.0,3.961
226.5,3.941
226.0,3.968
225.5,3.972
225.0,3.979
224.5,3.905
224.0,3.905
223.5,3.963
223.0,3.971
222.5,3.960
222.0,3.951
221.5,3.978
221.0,3.977
220.5,3.998
220.0,4.000
219.5,3.991
219.0,3.991
218.5,3.964
218.0,3.957
217.5,3.981
217.0,3.980
216.5,3.970
216.0,3.968
215.5,3.995
215.0,3.967
214.5,3.970
214.0,3.975
213.5,3.951
213.0,3.976
212.5,3.954
212.0,3.977
211.5,3.990
211.0,3.985
210.5,3.942
210.0,3.917
209.5,3.935
209.0,3.962
208.5,3.987
208.0,3.987
207.5,3.982
207.0,3.969
206.5,3.942
206.0,3.939
205.5,3.907
205.0,3.945
204.5,3.989
204.0,3.997
203.5,3.997
203.0,3.929
202.5,3.893
202.0,3.874
201.5,3.896
201.0,3.967
200.5,3.941
200.0,3.865
