"PHT07S62.SPC"
WL/nm,Abs
900.0,0.090
899.5,0.090
899.0,0.090
898.5,0.089
898.0,0.089
897.5,0.089
897.0,0.089
896.5,0.089
896.0,0.089
895.5,0.089
895.0,0.089
894.5,0.089
894.0,0.089
893.5,0.089
893.0,0.089
892.5,0.089
892.0,0.088
891.5,0.088
891.0,0.088
890.5,0.087
890.0,0.087
889.5,0.087
889.0,0.087
888.5,0.087
888.0,0.087
887.5,0.087
887.0,0.088
886.5,0.088
886.0,0.089
885.5,0.089
885.0,0.089
884.5,0.090
884.0,0.090
883.5,0.090
883.0,0.090
882.5,0.090
882.0,0.091
881.5,0.091
881.0,0.091
880.5,0.091
880.0,0.091
879.5,0.091
879.0,0.092
878.5,0.092
878.0,0.092
877.5,0.092
877.0,0.092
876.5,0.092
876.0,0.092
875.5,0.092
875.0,0.091
874.5,0.091
874.0,0.091
873.5,0.091
873.0,0.090
872.5,0.090
872.0,0.090
871.5,0.089
871.0,0.089
870.5,0.088
870.0,0.088
869.5,0.087
869.0,0.087
868.5,0.087
868.0,0.086
867.5,0.086
867.0,0.086
866.5,0.086
866.0,0.085
865.5,0.085
865.0,0.085
864.5,0.084
864.0,0.084
863.5,0.084
863.0,0.084
862.5,0.084
862.0,0.084
861.5,0.083
861.0,0.083
860.5,0.083
860.0,0.083
859.5,0.083
859.0,0.083
858.5,0.083
858.0,0.083
857.5,0.083
857.0,0.082
856.5,0.082
856.0,0.082
855.5,0.082
855.0,0.082
854.5,0.082
854.0,0.082
853.5,0.082
853.0,0.082
852.5,0.082
852.0,0.082
851.5,0.081
851.0,0.081
850.5,0.081
850.0,0.081
849.5,0.081
849.0,0.081
848.5,0.081
848.0,0.081
847.5,0.081
847.0,0.081
846.5,0.081
846.0,0.081
845.5,0.081
845.0,0.081
844.5,0.080
844.0,0.080
843.5,0.080
843.0,0.080
842.5,0.080
842.0,0.080
841.5,0.080
841.0,0.080
840.5,0.080
840.0,0.080
839.5,0.080
839.0,0.080
838.5,0.080
838.0,0.080
837.5,0.080
837.0,0.079
836.5,0.079
836.0,0.079
835.5,0.079
835.0,0.079
834.5,0.079
834.0,0.079
833.5,0.079
833.0,0.079
832.5,0.078
832.0,0.078
831.5,0.078
831.0,0.078
830.5,0.077
830.0,0.077
829.5,0.077
829.0,0.077
828.5,0.076
828.0,0.076
827.5,0.076
827.0,0.076
826.5,0.075
826.0,0.075
825.5,0.075
825.0,0.075
824.5,0.075
824.0,0.074
823.5,0.074
823.0,0.074
822.5,0.074
822.0,0.074
821.5,0.074
821.0,0.074
820.5,0.074
820.0,0.074
819.5,0.073
819.0,0.073
818.5,0.073
818.0,0.073
817.5,0.073
817.0,0.073
816.5,0.073
816.0,0.073
815.5,0.073
815.0,0.073
814.5,0.073
814.0,0.073
813.5,0.073
813.0,0.073
812.5,0.073
812.0,0.073
811.5,0.073
811.0,0.073
810.5,0.073
810.0,0.073
809.5,0.073
809.0,0.073
808.5,0.073
808.0,0.073
807.5,0.073
807.0,0.073
806.5,0.073
806.0,0.073
805.5,0.073
805.0,0.073
804.5,0.073
804.0,0.073
803.5,0.073
803.0,0.073
802.5,0.073
802.0,0.073
801.5,0.073
801.0,0.073
800.5,0.073
800.0,0.073
799.5,0.073
799.0,0.073
798.5,0.074
798.0,0.074
797.5,0.074
797.0,0.074
796.5,0.074
796.0,0.074
795.5,0.074
795.0,0.074
794.5,0.074
794.0,0.074
793.5,0.074
793.0,0.074
792.5,0.074
792.0,0.074
791.5,0.075
791.0,0.075
790.5,0.075
790.0,0.075
789.5,0.075
789.0,0.075
788.5,0.075
788.0,0.075
787.5,0.075
787.0,0.075
786.5,0.075
786.0,0.075
785.5,0.075
785.0,0.075
784.5,0.075
784.0,0.075
783.5,0.076
783.0,0.076
782.5,0.076
782.0,0.076
781.5,0.076
781.0,0.076
780.5,0.076
780.0,0.076
779.5,0.076
779.0,0.076
778.5,0.076
778.0,0.076
777.5,0.076
777.0,0.076
776.5,0.076
776.0,0.077
775.5,0.077
775.0,0.077
774.5,0.077
774.0,0.077
773.5,0.077
773.0,0.077
772.5,0.077
772.0,0.077
771.5,0.077
771.0,0.077
770.5,0.077
770.0,0.077
769.5,0.077
769.0,0.077
768.5,0.077
768.0,0.078
767.5,0.078
767.0,0.078
766.5,0.078
766.0,0.078
765.5,0.078
765.0,0.078
764.5,0.078
764.0,0.078
763.5,0.078
763.0,0.078
762.5,0.078
762.0,0.078
761.5,0.078
761.0,0.078
760.5,0.078
760.0,0.078
759.5,0.079
759.0,0.079
758.5,0.079
758.0,0.079
757.5,0.079
757.0,0.079
756.5,0.079
756.0,0.079
755.5,0.079
755.0,0.079
754.5,0.080
754.0,0.080
753.5,0.080
753.0,0.080
752.5,0.080
752.0,0.080
751.5,0.080
751.0,0.080
750.5,0.080
750.0,0.080
749.5,0.080
749.0,0.081
748.5,0.081
748.0,0.081
747.5,0.081
747.0,0.081
746.5,0.082
746.0,0.082
745.5,0.082
745.0,0.082
744.5,0.082
744.0,0.082
743.5,0.082
743.0,0.083
742.5,0.083
742.0,0.083
741.5,0.083
741.0,0.083
740.5,0.083
740.0,0.084
739.5,0.084
739.0,0.084
738.5,0.085
738.0,0.085
737.5,0.085
737.0,0.085
736.5,0.085
736.0,0.085
735.5,0.086
735.0,0.086
734.5,0.086
734.0,0.086
733.5,0.086
733.0,0.086
732.5,0.086
732.0,0.087
731.5,0.087
731.0,0.087
730.5,0.087
730.0,0.088
729.5,0.088
729.0,0.088
728.5,0.089
728.0,0.089
727.5,0.090
727.0,0.090
726.5,0.090
726.0,0.091
725.5,0.092
725.0,0.092
724.5,0.093
724.0,0.094
723.5,0.094
723.0,0.095
722.5,0.095
722.0,0.096
721.5,0.097
721.0,0.098
720.5,0.099
720.0,0.100
719.5,0.101
719.0,0.102
718.5,0.103
718.0,0.104
717.5,0.106
717.0,0.107
716.5,0.108
716.0,0.109
715.5,0.111
715.0,0.112
714.5,0.114
714.0,0.115
713.5,0.117
713.0,0.119
712.5,0.120
712.0,0.122
711.5,0.124
711.0,0.126
710.5,0.128
710.0,0.130
709.5,0.132
709.0,0.134
708.5,0.137
708.0,0.140
707.5,0.142
707.0,0.145
706.5,0.148
706.0,0.151
705.5,0.154
705.0,0.157
704.5,0.161
704.0,0.164
703.5,0.168
703.0,0.171
702.5,0.175
702.0,0.179
701.5,0.183
701.0,0.187
700.5,0.192
700.0,0.196
699.5,0.201
699.0,0.206
698.5,0.211
698.0,0.217
697.5,0.223
697.0,0.228
696.5,0.234
696.0,0.240
695.5,0.247
695.0,0.253
694.5,0.260
694.0,0.267
693.5,0.274
693.0,0.282
692.5,0.289
692.0,0.298
691.5,0.306
691.0,0.315
690.5,0.324
690.0,0.333
689.5,0.343
689.0,0.354
688.5,0.364
688.0,0.375
687.5,0.386
687.0,0.397
686.5,0.410
686.0,0.422
685.5,0.435
685.0,0.449
684.5,0.463
684.0,0.477
683.5,0.491
683.0,0.506
682.5,0.521
682.0,0.537
681.5,0.553
681.0,0.570
680.5,0.588
680.0,0.606
679.5,0.625
679.0,0.644
678.5,0.664
678.0,0.685
677.5,0.706
677.0,0.727
676.5,0.748
676.0,0.770
675.5,0.793
675.0,0.816
674.5,0.840
674.0,0.864
673.5,0.890
673.0,0.916
672.5,0.943
672.0,0.971
671.5,1.001
671.0,1.032
670.5,1.063
670.0,1.094
669.5,1.126
669.0,1.159
668.5,1.193
668.0,1.227
667.5,1.262
667.0,1.298
666.5,1.334
666.0,1.370
665.5,1.408
665.0,1.445
664.5,1.484
664.0,1.522
663.5,1.560
663.0,1.597
662.5,1.635
662.0,1.674
661.5,1.714
661.0,1.754
660.5,1.793
660.0,1.833
659.5,1.872
659.0,1.911
658.5,1.950
658.0,1.988
657.5,2.024
657.0,2.059
656.5,2.091
656.0,2.122
655.5,2.151
655.0,2.179
654.5,2.205
654.0,2.230
653.5,2.253
653.0,2.274
652.5,2.294
652.0,2.312
651.5,2.328
651.0,2.343
650.5,2.341
650.0,2.327
649.5,2.314
649.0,2.322
648.5,2.329
648.0,2.335
647.5,2.339
647.0,2.342
646.5,2.343
646.0,2.344
645.5,2.343
645.0,2.342
644.5,2.339
644.0,2.336
643.5,2.332
643.0,2.328
642.5,2.323
642.0,2.318
641.5,2.312
641.0,2.307
640.5,2.301
640.0,2.296
639.5,2.291
639.0,2.286
638.5,2.283
638.0,2.280
637.5,2.278
637.0,2.276
636.5,2.276
636.0,2.276
635.5,2.277
635.0,2.278
634.5,2.280
634.0,2.283
633.5,2.285
633.0,2.288
632.5,2.291
632.0,2.293
631.5,2.296
631.0,2.297
630.5,2.299
630.0,2.301
629.5,2.302
629.0,2.302
628.5,2.303
628.0,2.303
627.5,2.303
627.0,2.303
626.5,2.303
626.0,2.302
625.5,2.302
625.0,2.302
624.5,2.301
624.0,2.300
623.5,2.299
623.0,2.299
622.5,2.298
622.0,2.298
621.5,2.297
621.0,2.296
620.5,2.296
620.0,2.295
619.5,2.294
619.0,2.294
618.5,2.293
618.0,2.292
617.5,2.291
617.0,2.290
616.5,2.289
616.0,2.288
615.5,2.288
615.0,2.287
614.5,2.286
614.0,2.284
613.5,2.284
613.0,2.283
612.5,2.282
612.0,2.280
611.5,2.280
611.0,2.279
610.5,2.278
610.0,2.277
609.5,2.275
609.0,2.275
608.5,2.273
608.0,2.272
607.5,2.271
607.0,2.270
606.5,2.269
606.0,2.268
605.5,2.267
605.0,2.266
604.5,2.264
604.0,2.263
603.5,2.262
603.0,2.261
602.5,2.260
602.0,2.258
601.5,2.257
601.0,2.256
600.5,2.255
600.0,2.254
599.5,2.252
599.0,2.251
598.5,2.250
598.0,2.249
597.5,2.247
597.0,2.246
596.5,2.245
596.0,2.243
595.5,2.242
595.0,2.241
594.5,2.239
594.0,2.238
593.5,2.237
593.0,2.236
592.5,2.234
592.0,2.233
591.5,2.231
591.0,2.230
590.5,2.229
590.0,2.227
589.5,2.226
589.0,2.224
588.5,2.223
588.0,2.222
587.5,2.220
587.0,2.219
586.5,2.218
586.0,2.216
585.5,2.215
585.0,2.213
584.5,2.212
584.0,2.210
583.5,2.209
583.0,2.208
582.5,2.206
582.0,2.204
581.5,2.203
581.0,2.201
580.5,2.200
580.0,2.198
579.5,2.196
579.0,2.195
578.5,2.193
578.0,2.192
577.5,2.190
577.0,2.188
576.5,2.187
576.0,2.185
575.5,2.183
575.0,2.181
574.5,2.179
574.0,2.177
573.5,2.175
573.0,2.173
572.5,2.171
572.0,2.170
571.5,2.168
571.0,2.165
570.5,2.164
570.0,2.162
569.5,2.160
569.0,2.158
568.5,2.155
568.0,2.153
567.5,2.150
567.0,2.148
566.5,2.146
566.0,2.143
565.5,2.141
565.0,2.138
564.5,2.136
564.0,2.134
563.5,2.131
563.0,2.128
562.5,2.126
562.0,2.122
561.5,2.119
561.0,2.116
560.5,2.113
560.0,2.111
559.5,2.107
559.0,2.104
558.5,2.101
558.0,2.097
557.5,2.094
557.0,2.090
556.5,2.087
556.0,2.083
555.5,2.079
555.0,2.075
554.5,2.070
554.0,2.067
553.5,2.063
553.0,2.058
552.5,2.054
552.0,2.050
551.5,2.045
551.0,2.040
550.5,2.036
550.0,2.031
549.5,2.026
549.0,2.020
548.5,2.015
548.0,2.010
547.5,2.004
547.0,1.999
546.5,1.994
546.0,1.989
545.5,1.983
545.0,1.978
544.5,1.972
544.0,1.967
543.5,1.961
543.0,1.955
542.5,1.949
542.0,1.943
541.5,1.937
541.0,1.931
540.5,1.925
540.0,1.919
539.5,1.913
539.0,1.907
538.5,1.901
538.0,1.894
537.5,1.888
537.0,1.881
536.5,1.949
536.0,2.130
535.5,2.310
535.0,2.320
534.5,2.312
534.0,2.305
533.5,2.297
533.0,2.290
532.5,2.283
532.0,2.276
531.5,2.270
531.0,2.264
530.5,2.258
530.0,2.253
529.5,2.256
529.0,2.278
528.5,2.300
528.0,2.301
527.5,2.297
527.0,2.293
526.5,2.289
526.0,2.286
525.5,2.283
525.0,2.280
524.5,2.278
524.0,2.277
523.5,2.275
523.0,2.274
522.5,2.273
522.0,2.272
521.5,2.272
521.0,2.272
520.5,2.272
520.0,2.273
519.5,2.273
519.0,2.275
518.5,2.276
518.0,2.278
517.5,2.280
517.0,2.282
516.5,2.286
516.0,2.289
515.5,2.292
515.0,2.295
514.5,2.299
514.0,2.303
513.5,2.306
513.0,2.311
512.5,2.316
512.0,2.321
511.5,2.326
511.0,2.331
510.5,2.338
510.0,2.344
509.5,2.350
509.0,2.356
508.5,2.364
508.0,2.371
507.5,2.378
507.0,2.386
506.5,2.394
506.0,2.402
505.5,2.409
505.0,2.417
504.5,2.426
504.0,2.434
503.5,2.443
503.0,2.452
502.5,2.460
502.0,2.468
501.5,2.477
501.0,2.485
500.5,2.495
500.0,2.506
499.5,2.516
499.0,2.523
498.5,2.532
498.0,2.542
497.5,2.551
497.0,2.560
496.5,2.569
496.0,2.578
495.5,2.587
495.0,2.597
494.5,2.608
494.0,2.617
493.5,2.628
493.0,2.638
492.5,2.649
492.0,2.660
491.5,2.668
491.0,2.679
490.5,2.687
490.0,2.696
489.5,2.707
489.0,2.716
488.5,2.726
488.0,2.734
487.5,2.744
487.0,2.754
486.5,2.765
486.0,2.775
485.5,2.781
485.0,2.789
484.5,2.797
484.0,2.809
483.5,2.817
483.0,2.822
482.5,2.833
482.0,2.839
481.5,2.846
481.0,2.854
480.5,2.858
480.0,2.868
479.5,2.873
479.0,2.879
478.5,2.883
478.0,2.890
477.5,2.899
477.0,2.904
476.5,2.909
476.0,2.916
475.5,2.919
475.0,2.921
474.5,2.923
474.0,2.929
473.5,2.932
473.0,2.935
472.5,2.944
472.0,2.942
471.5,2.944
471.0,2.945
470.5,2.951
470.0,2.952
469.5,2.948
469.0,2.952
468.5,2.957
468.0,2.963
467.5,2.968
467.0,2.967
466.5,2.966
466.0,2.961
465.5,2.965
465.0,2.967
464.5,2.962
464.0,2.961
463.5,2.956
463.0,2.958
462.5,2.959
462.0,2.958
461.5,2.950
461.0,2.943
460.5,2.943
460.0,2.938
459.5,2.928
459.0,2.931
458.5,2.925
458.0,2.924
457.5,2.919
457.0,2.913
456.5,2.914
456.0,2.911
455.5,2.911
455.0,2.909
454.5,2.906
454.0,2.910
453.5,2.912
453.0,2.915
452.5,2.917
452.0,2.927
451.5,2.931
451.0,2.930
450.5,2.938
450.0,2.943
449.5,2.946
449.0,2.946
448.5,2.950
448.0,2.958
447.5,2.958
447.0,2.961
446.5,2.967
446.0,2.975
445.5,2.984
445.0,2.986
444.5,2.990
444.0,2.992
443.5,2.996
443.0,3.007
442.5,3.001
442.0,3.006
441.5,3.009
441.0,3.009
440.5,3.007
440.0,3.002
439.5,3.007
439.0,3.006
438.5,3.005
438.0,3.002
437.5,2.994
437.0,2.988
436.5,2.977
436.0,2.974
435.5,2.973
435.0,2.969
434.5,2.963
434.0,2.954
433.5,2.951
433.0,2.946
432.5,2.944
432.0,2.936
431.5,2.929
431.0,2.924
430.5,2.912
430.0,2.912
429.5,2.906
429.0,2.904
428.5,2.901
428.0,2.897
427.5,2.888
427.0,2.882
426.5,2.883
426.0,2.872
425.5,2.872
425.0,2.869
424.5,2.861
424.0,2.855
423.5,2.845
423.0,2.844
422.5,2.842
422.0,2.837
421.5,2.832
421.0,2.824
420.5,2.825
420.0,2.818
419.5,2.812
419.0,2.806
418.5,2.802
418.0,2.801
417.5,2.791
417.0,2.785
416.5,2.868
416.0,3.140
415.5,3.414
415.0,3.433
414.5,3.430
414.0,3.391
413.5,3.410
413.0,3.400
412.5,3.414
412.0,3.427
411.5,3.425
411.0,3.432
410.5,3.433
410.0,3.434
409.5,3.440
409.0,3.437
408.5,3.458
408.0,3.434
407.5,3.433
407.0,3.413
406.5,3.411
406.0,3.381
405.5,3.420
405.0,3.430
404.5,3.350
404.0,3.378
403.5,3.392
403.0,3.434
402.5,3.411
402.0,3.356
401.5,3.355
401.0,3.367
400.5,3.382
400.0,3.367
399.5,3.354
399.0,3.346
398.5,3.332
398.0,3.357
397.5,3.329
397.0,3.326
396.5,3.330
396.0,3.322
395.5,3.328
395.0,3.309
394.5,3.322
394.0,3.303
393.5,3.262
393.0,3.291
392.5,3.280
392.0,3.305
391.5,3.267
391.0,3.245
390.5,3.250
390.0,3.219
389.5,3.220
389.0,3.183
388.5,3.157
388.0,3.148
387.5,3.161
387.0,3.167
386.5,3.105
386.0,3.052
385.5,3.053
385.0,3.073
384.5,3.095
384.0,3.062
383.5,3.050
383.0,3.010
382.5,2.979
382.0,2.970
381.5,2.936
381.0,2.940
380.5,2.927
380.0,2.923
379.5,2.912
379.0,2.865
378.5,2.867
378.0,2.842
377.5,2.820
377.0,2.806
376.5,2.782
376.0,2.787
375.5,2.771
375.0,2.753
374.5,2.718
374.0,2.687
373.5,2.684
373.0,2.676
372.5,2.671
372.0,2.647
371.5,2.636
371.0,2.631
370.5,2.613
370.0,2.603
369.5,2.562
369.0,2.561
368.5,2.547
368.0,2.512
367.5,2.486
367.0,2.465
366.5,2.474
366.0,2.457
365.5,2.455
365.0,2.442
364.5,2.428
364.0,2.420
363.5,2.408
363.0,2.388
362.5,2.381
362.0,2.374
361.5,2.368
361.0,2.340
360.5,2.323
360.0,2.320
359.5,2.315
359.0,2.311
358.5,2.292
358.0,2.283
357.5,2.267
357.0,2.254
356.5,2.253
356.0,2.239
355.5,2.234
355.0,2.217
354.5,2.205
354.0,2.202
353.5,2.189
353.0,2.185
352.5,2.173
352.0,2.165
351.5,2.148
351.0,2.137
350.5,2.133
350.0,2.121
349.5,2.113
349.0,2.095
348.5,2.092
348.0,2.083
347.5,2.072
347.0,2.068
346.5,2.056
346.0,2.055
345.5,2.046
345.0,2.035
344.5,2.034
344.0,2.028
343.5,2.027
343.0,2.021
342.5,2.013
342.0,2.012
341.5,2.007
341.0,2.012
340.5,1.985
340.0,1.972
339.5,1.969
339.0,1.974
338.5,1.974
338.0,1.981
337.5,1.982
337.0,1.992
336.5,2.000
336.0,2.002
335.5,2.013
335.0,2.023
334.5,2.032
334.0,2.040
333.5,2.049
333.0,2.067
332.5,2.079
332.0,2.103
331.5,2.117
331.0,2.137
330.5,2.160
330.0,2.174
329.5,2.202
329.0,2.224
328.5,2.242
328.0,2.259
327.5,2.288
327.0,2.325
326.5,2.357
326.0,2.407
325.5,2.433
325.0,2.449
324.5,2.478
324.0,2.509
323.5,2.570
323.0,2.603
322.5,2.664
322.0,2.701
321.5,2.727
321.0,2.757
320.5,2.787
320.0,2.883
319.5,2.914
319.0,2.892
318.5,2.921
318.0,2.962
317.5,3.092
317.0,3.116
316.5,3.169
316.0,3.238
315.5,3.281
315.0,3.268
314.5,3.195
314.0,3.378
313.5,3.384
313.0,3.493
312.5,3.368
312.0,3.287
311.5,3.447
311.0,3.544
310.5,3.484
310.0,3.321
309.5,3.396
309.0,3.475
308.5,3.393
308.0,3.492
307.5,3.470
307.0,3.428
306.5,3.391
306.0,3.282
305.5,3.345
305.0,3.228
304.5,3.236
304.0,3.242
303.5,3.194
303.0,3.188
302.5,3.202
302.0,3.230
301.5,3.209
301.0,3.243
300.5,3.252
300.0,3.224
299.5,3.221
299.0,3.234
298.5,3.324
298.0,3.299
297.5,3.306
297.0,3.450
296.5,3.484
296.0,3.570
295.5,3.558
295.0,3.607
294.5,3.585
294.0,3.614
293.5,3.721
293.0,3.720
292.5,3.769
292.0,3.783
291.5,3.879
291.0,3.843
290.5,3.751
290.0,3.871
289.5,3.848
289.0,3.828
288.5,3.730
288.0,3.815
287.5,3.849
287.0,3.757
286.5,3.748
286.0,3.727
285.5,3.825
285.0,3.807
284.5,3.855
284.0,3.849
283.5,3.803
283.0,3.838
282.5,3.818
282.0,3.860
281.5,3.884
281.0,3.839
280.5,3.870
280.0,3.788
279.5,3.826
279.0,3.868
278.5,3.910
278.0,3.951
277.5,3.885
277.0,3.879
276.5,3.826
276.0,3.846
275.5,3.769
275.0,3.802
274.5,3.804
274.0,3.812
273.5,3.888
273.0,3.832
272.5,3.943
272.0,3.926
271.5,3.945
271.0,3.919
270.5,3.841
270.0,3.883
269.5,3.899
269.0,3.992
268.5,3.935
268.0,3.885
267.5,3.892
267.0,3.849
266.5,3.908
266.0,3.820
265.5,3.876
265.0,3.857
264.5,3.918
264.0,3.952
263.5,3.952
263.0,3.962
262.5,3.981
262.0,3.960
261.5,3.979
261.0,3.986
260.5,3.964
260.0,3.896
259.5,3.904
259.0,3.904
258.5,3.918
258.0,3.913
257.5,3.885
257.0,3.911
256.5,3.914
256.0,3.984
255.5,3.991
255.0,3.971
254.5,3.952
254.0,3.929
253.5,3.976
253.0,3.980
252.5,3.985
252.0,3.966
251.5,3.981
251.0,3.992
250.5,3.970
250.0,3.974
249.5,3.978
249.0,3.993
248.5,3.997
248.0,4.000
247.5,4.000
247.0,3.993
246.5,3.978
246.0,3.961
245.5,3.954
245.0,3.890
244.5,3.904
244.0,3.914
243.5,3.966
243.0,4.000
242.5,3.986
242.0,3.986
241.5,3.975
241.0,3.981
240.5,3.984
240.0,3.984
239.5,4.000
239.0,3.973
238.5,3.973
238.0,3.981
237.5,4.000
237.0,3.997
236.5,3.997
236.0,4.000
235.5,3.996
235.0,3.996
234.5,3.968
234.0,3.944
233.5,3.948
233.0,3.957
232.5,4.000
232.0,4.000
231.5,4.000
231.0,4.000
230.5,3.974
230.0,3.967
229.5,3.966
229.0,3.969
228.5,3.956
228.0,3.981
227.5,3.993
227.0,3.990
226.5,3.958
226.0,3.958
225.5,4.000
225.0,3.986
224.5,3.980
224.0,3.980
223.5,3.999
223.0,3.998
222.5,3.998
222.0,3.992
221.5,3.973
221.0,3.971
220.5,3.971
220.0,4.000
219.5,3.929
219.0,3.929
218.5,3.912
218.0,3.968
217.5,3.986
217.0,3.980
216.5,3.983
216.0,3.947
215.5,3.960
215.0,4.000
214.5,3.990
214.0,3.954
213.5,3.911
213.0,3.957
212.5,3.980
212.0,3.999
211.5,3.991
211.0,3.992
210.5,3.999
210.0,3.998
209.5,3.992
209.0,3.992
208.5,3.989
208.0,3.967
207.5,3.967
207.0,3.943
206.5,3.925
206.0,3.948
205.5,3.983
205.0,3.993
204.5,3.993
204.0,4.000
203.5,3.984
203.0,3.981
202.5,3.965
202.0,3.950
201.5,3.960
201.0,3.969
200.5,3.969
200.0,4.000
