"PHT03S41.SPC"
WL/nm,Abs
900.0,0.475
899.5,0.475
899.0,0.475
898.5,0.475
898.0,0.476
897.5,0.476
897.0,0.477
896.5,0.477
896.0,0.477
895.5,0.477
895.0,0.478
894.5,0.478
894.0,0.478
893.5,0.479
893.0,0.479
892.5,0.479
892.0,0.479
891.5,0.479
891.0,0.480
890.5,0.480
890.0,0.480
889.5,0.480
889.0,0.481
888.5,0.481
888.0,0.481
887.5,0.482
887.0,0.482
886.5,0.483
886.0,0.484
885.5,0.485
885.0,0.485
884.5,0.486
884.0,0.487
883.5,0.487
883.0,0.488
882.5,0.489
882.0,0.489
881.5,0.490
881.0,0.491
880.5,0.491
880.0,0.492
879.5,0.493
879.0,0.493
878.5,0.494
878.0,0.494
877.5,0.495
877.0,0.495
876.5,0.496
876.0,0.496
875.5,0.496
875.0,0.497
874.5,0.497
874.0,0.497
873.5,0.497
873.0,0.498
872.5,0.498
872.0,0.498
871.5,0.498
871.0,0.498
870.5,0.498
870.0,0.498
869.5,0.498
869.0,0.498
868.5,0.498
868.0,0.498
867.5,0.498
867.0,0.498
866.5,0.498
866.0,0.499
865.5,0.499
865.0,0.499
864.5,0.499
864.0,0.500
863.5,0.500
863.0,0.500
862.5,0.500
862.0,0.501
861.5,0.501
861.0,0.501
860.5,0.502
860.0,0.502
859.5,0.502
859.0,0.503
858.5,0.503
858.0,0.503
857.5,0.504
857.0,0.504
856.5,0.504
856.0,0.505
855.5,0.505
855.0,0.506
854.5,0.506
854.0,0.506
853.5,0.507
853.0,0.507
852.5,0.507
852.0,0.508
851.5,0.508
851.0,0.509
850.5,0.509
850.0,0.510
849.5,0.510
849.0,0.510
848.5,0.511
848.0,0.511
847.5,0.512
847.0,0.512
846.5,0.513
846.0,0.513
845.5,0.514
845.0,0.515
844.5,0.515
844.0,0.515
843.5,0.516
843.0,0.516
842.5,0.517
842.0,0.517
841.5,0.517
841.0,0.518
840.5,0.518
840.0,0.519
839.5,0.520
839.0,0.520
838.5,0.520
838.0,0.521
837.5,0.521
837.0,0.522
836.5,0.522
836.0,0.523
835.5,0.523
835.0,0.523
834.5,0.524
834.0,0.524
833.5,0.524
833.0,0.525
832.5,0.525
832.0,0.525
831.5,0.526
831.0,0.526
830.5,0.527
830.0,0.527
829.5,0.527
829.0,0.527
828.5,0.528
828.0,0.528
827.5,0.529
827.0,0.529
826.5,0.529
826.0,0.530
825.5,0.530
825.0,0.530
824.5,0.531
824.0,0.531
823.5,0.532
823.0,0.532
822.5,0.533
822.0,0.533
821.5,0.534
821.0,0.534
820.5,0.535
820.0,0.535
819.5,0.535
819.0,0.536
818.5,0.537
818.0,0.537
817.5,0.538
817.0,0.538
816.5,0.539
816.0,0.539
815.5,0.540
815.0,0.541
814.5,0.541
814.0,0.542
813.5,0.543
813.0,0.543
812.5,0.544
812.0,0.544
811.5,0.545
811.0,0.546
810.5,0.547
810.0,0.547
809.5,0.548
809.0,0.549
808.5,0.549
808.0,0.550
807.5,0.550
807.0,0.551
806.5,0.552
806.0,0.552
805.5,0.553
805.0,0.554
804.5,0.554
804.0,0.555
803.5,0.555
803.0,0.556
802.5,0.557
802.0,0.558
801.5,0.559
801.0,0.559
800.5,0.560
800.0,0.561
799.5,0.561
799.0,0.562
798.5,0.563
798.0,0.564
797.5,0.564
797.0,0.565
796.5,0.566
796.0,0.567
795.5,0.567
795.0,0.568
794.5,0.569
794.0,0.569
793.5,0.570
793.0,0.571
792.5,0.572
792.0,0.572
791.5,0.573
791.0,0.574
790.5,0.575
790.0,0.576
789.5,0.576
789.0,0.577
788.5,0.578
788.0,0.579
787.5,0.580
787.0,0.581
786.5,0.582
786.0,0.582
785.5,0.583
785.0,0.584
784.5,0.585
784.0,0.586
783.5,0.587
783.0,0.588
782.5,0.589
782.0,0.589
781.5,0.590
781.0,0.591
780.5,0.592
780.0,0.593
779.5,0.594
779.0,0.594
778.5,0.595
778.0,0.596
777.5,0.597
777.0,0.598
776.5,0.599
776.0,0.600
775.5,0.600
775.0,0.601
774.5,0.602
774.0,0.603
773.5,0.604
773.0,0.605
772.5,0.606
772.0,0.607
771.5,0.608
771.0,0.608
770.5,0.609
770.0,0.610
769.5,0.611
769.0,0.612
768.5,0.613
768.0,0.614
767.5,0.615
767.0,0.616
766.5,0.617
766.0,0.618
765.5,0.619
765.0,0.620
764.5,0.621
764.0,0.622
763.5,0.623
763.0,0.624
762.5,0.625
762.0,0.626
761.5,0.627
761.0,0.628
760.5,0.629
760.0,0.630
759.5,0.631
759.0,0.632
758.5,0.633
758.0,0.634
757.5,0.635
757.0,0.637
756.5,0.638
756.0,0.639
755.5,0.640
755.0,0.641
754.5,0.642
754.0,0.643
753.5,0.644
753.0,0.645
752.5,0.646
752.0,0.648
751.5,0.649
751.0,0.650
750.5,0.651
750.0,0.653
749.5,0.654
749.0,0.655
748.5,0.656
748.0,0.658
747.5,0.659
747.0,0.660
746.5,0.661
746.0,0.663
745.5,0.664
745.0,0.666
744.5,0.667
744.0,0.668
743.5,0.670
743.0,0.671
742.5,0.673
742.0,0.674
741.5,0.676
741.0,0.677
740.5,0.679
740.0,0.680
739.5,0.682
739.0,0.683
738.5,0.685
738.0,0.686
737.5,0.688
737.0,0.690
736.5,0.691
736.0,0.693
735.5,0.695
735.0,0.697
734.5,0.698
734.0,0.700
733.5,0.702
733.0,0.704
732.5,0.706
732.0,0.707
731.5,0.709
731.0,0.711
730.5,0.714
730.0,0.716
729.5,0.718
729.0,0.720
728.5,0.723
728.0,0.725
727.5,0.727
727.0,0.730
726.5,0.733
726.0,0.735
725.5,0.738
725.0,0.740
724.5,0.743
724.0,0.746
723.5,0.749
723.0,0.753
722.5,0.756
722.0,0.759
721.5,0.762
721.0,0.766
720.5,0.769
720.0,0.773
719.5,0.777
719.0,0.781
718.5,0.784
718.0,0.788
717.5,0.793
717.0,0.797
716.5,0.801
716.0,0.806
715.5,0.810
715.0,0.815
714.5,0.820
714.0,0.826
713.5,0.831
713.0,0.836
712.5,0.842
712.0,0.848
711.5,0.854
711.0,0.860
710.5,0.867
710.0,0.873
709.5,0.880
709.0,0.887
708.5,0.894
708.0,0.902
707.5,0.910
707.0,0.917
706.5,0.925
706.0,0.933
705.5,0.941
705.0,0.950
704.5,0.959
704.0,0.968
703.5,0.977
703.0,0.987
702.5,0.997
702.0,1.007
701.5,1.017
701.0,1.028
700.5,1.039
700.0,1.050
699.5,1.062
699.0,1.074
698.5,1.087
698.0,1.100
697.5,1.114
697.0,1.128
696.5,1.143
696.0,1.158
695.5,1.173
695.0,1.189
694.5,1.206
694.0,1.222
693.5,1.239
693.0,1.256
692.5,1.274
692.0,1.293
691.5,1.313
691.0,1.332
690.5,1.353
690.0,1.373
689.5,1.394
689.0,1.416
688.5,1.439
688.0,1.463
687.5,1.488
687.0,1.513
686.5,1.539
686.0,1.566
685.5,1.594
685.0,1.622
684.5,1.652
684.0,1.682
683.5,1.712
683.0,1.743
682.5,1.771
682.0,1.800
681.5,1.831
681.0,1.863
680.5,1.897
680.0,1.931
679.5,1.965
679.0,2.000
678.5,2.035
678.0,2.071
677.5,2.108
677.0,2.144
676.5,2.181
676.0,2.217
675.5,2.253
675.0,2.289
674.5,2.324
674.0,2.358
673.5,2.391
673.0,2.424
672.5,2.456
672.0,2.487
671.5,2.516
671.0,2.545
670.5,2.571
670.0,2.597
669.5,2.620
669.0,2.642
668.5,2.662
668.0,2.680
667.5,2.697
667.0,2.712
666.5,2.726
666.0,2.737
665.5,2.747
665.0,2.756
664.5,2.763
664.0,2.769
663.5,2.774
663.0,2.778
662.5,2.782
662.0,2.784
661.5,2.788
661.0,2.789
660.5,2.791
660.0,2.793
659.5,2.795
659.0,2.797
658.5,2.797
658.0,2.797
657.5,2.797
657.0,2.797
656.5,2.797
656.0,2.796
655.5,2.796
655.0,2.796
654.5,2.797
654.0,2.797
653.5,2.796
653.0,2.796
652.5,2.796
652.0,2.795
651.5,2.794
651.0,2.794
650.5,2.794
650.0,2.793
649.5,2.793
649.0,2.792
648.5,2.791
648.0,2.789
647.5,2.787
647.0,2.784
646.5,2.782
646.0,2.779
645.5,2.776
645.0,2.771
644.5,2.767
644.0,2.761
643.5,2.755
643.0,2.750
642.5,2.743
642.0,2.737
641.5,2.731
641.0,2.724
640.5,2.718
640.0,2.712
639.5,2.706
639.0,2.701
638.5,2.696
638.0,2.691
637.5,2.689
637.0,2.688
636.5,2.687
636.0,2.687
635.5,2.688
635.0,2.689
634.5,2.691
634.0,2.694
633.5,2.696
633.0,2.698
632.5,2.700
632.0,2.702
631.5,2.705
631.0,2.706
630.5,2.708
630.0,2.709
629.5,2.710
629.0,2.711
628.5,2.712
628.0,2.713
627.5,2.713
627.0,2.713
626.5,2.712
626.0,2.711
625.5,2.711
625.0,2.711
624.5,2.711
624.0,2.710
623.5,2.708
623.0,2.706
622.5,2.705
622.0,2.705
621.5,2.706
621.0,2.704
620.5,2.703
620.0,2.702
619.5,2.701
619.0,2.700
618.5,2.699
618.0,2.698
617.5,2.697
617.0,2.697
616.5,2.697
616.0,2.696
615.5,2.694
615.0,2.693
614.5,2.693
614.0,2.691
613.5,2.690
613.0,2.690
612.5,2.689
612.0,2.688
611.5,2.687
611.0,2.687
610.5,2.686
610.0,2.684
609.5,2.683
609.0,2.682
608.5,2.682
608.0,2.681
607.5,2.681
607.0,2.679
606.5,2.679
606.0,2.678
605.5,2.678
605.0,2.676
604.5,2.674
604.0,2.673
603.5,2.671
603.0,2.671
602.5,2.670
602.0,2.669
601.5,2.667
601.0,2.666
600.5,2.665
600.0,2.663
599.5,2.662
599.0,2.661
598.5,2.660
598.0,2.659
597.5,2.657
597.0,2.656
596.5,2.655
596.0,2.655
595.5,2.654
595.0,2.652
594.5,2.650
594.0,2.648
593.5,2.647
593.0,2.647
592.5,2.646
592.0,2.645
591.5,2.644
591.0,2.643
590.5,2.642
590.0,2.641
589.5,2.639
589.0,2.637
588.5,2.635
588.0,2.634
587.5,2.634
587.0,2.632
586.5,2.631
586.0,2.630
585.5,2.630
585.0,2.627
584.5,2.626
584.0,2.625
583.5,2.623
583.0,2.621
582.5,2.621
582.0,2.619
581.5,2.618
581.0,2.616
580.5,2.615
580.0,2.614
579.5,2.612
579.0,2.610
578.5,2.609
578.0,2.608
577.5,2.607
577.0,2.605
576.5,2.604
576.0,2.602
575.5,2.600
575.0,2.599
574.5,2.598
574.0,2.597
573.5,2.595
573.0,2.594
572.5,2.593
572.0,2.590
571.5,2.589
571.0,2.588
570.5,2.586
570.0,2.584
569.5,2.583
569.0,2.582
568.5,2.580
568.0,2.578
567.5,2.577
567.0,2.575
566.5,2.573
566.0,2.571
565.5,2.570
565.0,2.569
564.5,2.567
564.0,2.565
563.5,2.563
563.0,2.562
562.5,2.560
562.0,2.559
561.5,2.557
561.0,2.555
560.5,2.553
560.0,2.552
559.5,2.550
559.0,2.548
558.5,2.546
558.0,2.544
557.5,2.543
557.0,2.541
556.5,2.540
556.0,2.539
555.5,2.536
555.0,2.534
554.5,2.533
554.0,2.531
553.5,2.529
553.0,2.527
552.5,2.526
552.0,2.524
551.5,2.522
551.0,2.520
550.5,2.518
550.0,2.515
549.5,2.514
549.0,2.512
548.5,2.510
548.0,2.508
547.5,2.505
547.0,2.503
546.5,2.501
546.0,2.499
545.5,2.496
545.0,2.493
544.5,2.492
544.0,2.489
543.5,2.486
543.0,2.483
542.5,2.481
542.0,2.477
541.5,2.474
541.0,2.472
540.5,2.468
540.0,2.465
539.5,2.462
539.0,2.459
538.5,2.455
538.0,2.451
537.5,2.448
537.0,2.445
536.5,2.594
536.0,2.974
535.5,3.361
535.0,3.407
534.5,3.418
534.0,3.418
533.5,3.416
533.0,3.413
532.5,3.408
532.0,3.408
531.5,3.414
531.0,3.412
530.5,3.422
530.0,3.412
529.5,3.407
529.0,3.410
528.5,3.409
528.0,3.409
527.5,3.415
527.0,3.414
526.5,3.411
526.0,3.408
525.5,3.414
525.0,3.414
524.5,3.412
524.0,3.401
523.5,3.405
523.0,3.405
522.5,3.411
522.0,3.407
521.5,3.395
521.0,3.399
520.5,3.400
520.0,3.406
519.5,3.397
519.0,3.394
518.5,3.388
518.0,3.391
517.5,3.395
517.0,3.392
516.5,3.396
516.0,3.397
515.5,3.394
515.0,3.391
514.5,3.400
514.0,3.396
513.5,3.398
513.0,3.401
512.5,3.391
512.0,3.387
511.5,3.391
511.0,3.383
510.5,3.383
510.0,3.386
509.5,3.388
509.0,3.389
508.5,3.390
508.0,3.389
507.5,3.387
507.0,3.388
506.5,3.391
506.0,3.392
505.5,3.394
505.0,3.384
504.5,3.386
504.0,3.383
503.5,3.385
503.0,3.381
502.5,3.377
502.0,3.378
501.5,3.374
501.0,3.381
500.5,3.388
500.0,3.376
499.5,3.369
499.0,3.373
498.5,3.380
498.0,3.369
497.5,3.368
497.0,3.368
496.5,3.365
496.0,3.362
495.5,3.357
495.0,3.362
494.5,3.365
494.0,3.362
493.5,3.361
493.0,3.360
492.5,3.361
492.0,3.357
491.5,3.357
491.0,3.351
490.5,3.345
490.0,3.349
489.5,3.355
489.0,3.350
488.5,3.341
488.0,3.343
487.5,3.344
487.0,3.339
486.5,3.341
486.0,3.343
485.5,3.345
485.0,3.346
484.5,3.342
484.0,3.331
483.5,3.324
483.0,3.332
482.5,3.334
482.0,3.336
481.5,3.330
481.0,3.328
480.5,3.327
480.0,3.328
479.5,3.327
479.0,3.324
478.5,3.314
478.0,3.320
477.5,3.316
477.0,3.320
476.5,3.315
476.0,3.314
475.5,3.310
475.0,3.311
474.5,3.313
474.0,3.310
473.5,3.305
473.0,3.298
472.5,3.301
472.0,3.295
471.5,3.285
471.0,3.280
470.5,3.277
470.0,3.280
469.5,3.284
469.0,3.281
468.5,3.282
468.0,3.285
467.5,3.284
467.0,3.283
466.5,3.276
466.0,3.270
465.5,3.273
465.0,3.273
464.5,3.280
464.0,3.277
463.5,3.276
463.0,3.271
462.5,3.263
462.0,3.267
461.5,3.263
461.0,3.249
460.5,3.231
460.0,3.231
459.5,3.227
459.0,3.220
458.5,3.222
458.0,3.212
457.5,3.214
457.0,3.217
456.5,3.218
456.0,3.213
455.5,3.202
455.0,3.202
454.5,3.196
454.0,3.202
453.5,3.215
453.0,3.219
452.5,3.213
452.0,3.204
451.5,3.203
451.0,3.211
450.5,3.219
450.0,3.225
449.5,3.224
449.0,3.233
448.5,3.242
448.0,3.242
447.5,3.243
447.0,3.242
446.5,3.244
446.0,3.245
445.5,3.241
445.0,3.247
444.5,3.247
444.0,3.247
443.5,3.267
443.0,3.268
442.5,3.268
442.0,3.275
441.5,3.278
441.0,3.277
440.5,3.275
440.0,3.273
439.5,3.272
439.0,3.258
438.5,3.249
438.0,3.248
437.5,3.244
437.0,3.240
436.5,3.236
436.0,3.229
435.5,3.224
435.0,3.226
434.5,3.222
434.0,3.215
433.5,3.208
433.0,3.213
432.5,3.211
432.0,3.195
431.5,3.184
431.0,3.190
430.5,3.182
430.0,3.175
429.5,3.171
429.0,3.161
428.5,3.157
428.0,3.157
427.5,3.154
427.0,3.144
426.5,3.128
426.0,3.124
425.5,3.125
425.0,3.121
424.5,3.104
424.0,3.099
423.5,3.093
423.0,3.093
422.5,3.090
422.0,3.083
421.5,3.079
421.0,3.085
420.5,3.076
420.0,3.057
419.5,3.055
419.0,3.051
418.5,3.054
418.0,3.054
417.5,3.054
417.0,3.036
416.5,3.130
416.0,3.326
415.5,3.519
415.0,3.552
414.5,3.563
414.0,3.610
413.5,3.623
413.0,3.587
412.5,3.547
412.0,3.524
411.5,3.581
411.0,3.566
410.5,3.558
410.0,3.551
409.5,3.612
409.0,3.568
408.5,3.605
408.0,3.595
407.5,3.595
407.0,3.574
406.5,3.562
406.0,3.556
405.5,3.581
405.0,3.573
404.5,3.568
404.0,3.616
403.5,3.620
403.0,3.601
402.5,3.553
402.0,3.512
401.5,3.538
401.0,3.569
400.5,3.561
400.0,3.553
399.5,3.554
399.0,3.566
398.5,3.585
398.0,3.594
397.5,3.580
397.0,3.598
396.5,3.581
396.0,3.598
395.5,3.584
395.0,3.533
394.5,3.582
394.0,3.622
393.5,3.580
393.0,3.564
392.5,3.557
392.0,3.556
391.5,3.527
391.0,3.461
390.5,3.539
390.0,3.575
389.5,3.518
389.0,3.496
388.5,3.492
388.0,3.540
387.5,3.535
387.0,3.537
386.5,3.490
386.0,3.517
385.5,3.516
385.0,3.492
384.5,3.446
384.0,3.456
383.5,3.466
383.0,3.516
382.5,3.439
382.0,3.467
381.5,3.496
381.0,3.537
380.5,3.568
380.0,3.537
379.5,3.549
379.0,3.553
378.5,3.554
378.0,3.518
377.5,3.520
377.0,3.530
376.5,3.519
376.0,3.517
375.5,3.460
375.0,3.467
374.5,3.446
374.0,3.424
373.5,3.402
373.0,3.415
372.5,3.438
372.0,3.396
371.5,3.379
371.0,3.496
370.5,3.489
370.0,3.396
369.5,3.394
369.0,3.348
368.5,3.457
368.0,3.499
367.5,3.391
367.0,3.356
366.5,3.369
366.0,3.433
365.5,3.385
365.0,3.420
364.5,3.511
364.0,3.710
363.5,3.575
363.0,3.554
362.5,3.559
362.0,3.619
361.5,3.664
361.0,3.676
360.5,3.665
360.0,3.573
359.5,3.520
359.0,3.540
358.5,3.613
358.0,3.576
357.5,3.557
357.0,3.562
356.5,3.625
356.0,3.599
355.5,3.583
355.0,3.534
354.5,3.525
354.0,3.573
353.5,3.624
353.0,3.623
352.5,3.563
352.0,3.565
351.5,3.634
351.0,3.667
350.5,3.517
350.0,3.522
349.5,3.569
349.0,3.608
348.5,3.518
348.0,3.451
347.5,3.605
347.0,3.641
346.5,3.607
346.0,3.510
345.5,3.548
345.0,3.550
344.5,3.575
344.0,3.587
343.5,3.588
343.0,3.586
342.5,3.502
342.0,3.573
341.5,3.470
341.0,3.628
340.5,3.757
340.0,3.558
339.5,3.454
339.0,3.533
338.5,3.536
338.0,3.511
337.5,3.490
337.0,3.585
336.5,3.543
336.0,3.520
335.5,3.587
335.0,3.665
334.5,3.626
334.0,3.593
333.5,3.581
333.0,3.607
332.5,3.651
332.0,3.654
331.5,3.645
331.0,3.657
330.5,3.658
330.0,3.610
329.5,3.596
329.0,3.600
328.5,3.591
328.0,3.684
327.5,3.649
327.0,3.686
326.5,3.734
326.0,3.752
325.5,3.712
325.0,3.714
324.5,3.636
324.0,3.628
323.5,3.628
323.0,3.668
322.5,3.711
322.0,3.743
321.5,3.625
321.0,3.649
320.5,3.679
320.0,3.590
319.5,3.595
319.0,3.575
318.5,3.612
318.0,3.698
317.5,3.670
317.0,3.656
316.5,3.610
316.0,3.652
315.5,3.623
315.0,3.617
314.5,3.586
314.0,3.610
313.5,3.706
313.0,3.667
312.5,3.630
312.0,3.673
311.5,3.640
311.0,3.645
310.5,3.699
310.0,3.663
309.5,3.677
309.0,3.651
308.5,3.677
308.0,3.653
307.5,3.657
307.0,3.727
306.5,3.740
306.0,3.676
305.5,3.658
305.0,3.724
304.5,3.661
304.0,3.617
303.5,3.678
303.0,3.785
302.5,3.739
302.0,3.715
301.5,3.739
301.0,3.722
300.5,3.702
300.0,3.658
299.5,3.649
299.0,3.710
298.5,3.781
298.0,3.818
297.5,3.770
297.0,3.709
296.5,3.731
296.0,3.751
295.5,3.740
295.0,3.750
294.5,3.721
294.0,3.740
293.5,3.740
293.0,3.691
292.5,3.727
292.0,3.819
291.5,3.789
291.0,3.773
290.5,3.699
290.0,3.680
289.5,3.716
289.0,3.758
288.5,3.721
288.0,3.760
287.5,3.777
287.0,3.768
286.5,3.733
286.0,3.747
285.5,3.719
285.0,3.748
284.5,3.720
284.0,3.705
283.5,3.714
283.0,3.738
282.5,3.713
282.0,3.736
281.5,3.751
281.0,3.721
280.5,3.678
280.0,3.723
279.5,3.760
279.0,3.752
278.5,3.789
278.0,3.765
277.5,3.790
277.0,3.810
276.5,3.773
276.0,3.778
275.5,3.739
275.0,3.753
274.5,3.773
274.0,3.722
273.5,3.739
273.0,3.788
272.5,3.833
272.0,3.846
271.5,3.821
271.0,3.802
270.5,3.811
270.0,3.825
269.5,3.824
269.0,3.803
268.5,3.829
268.0,3.859
267.5,3.821
267.0,3.812
266.5,3.779
266.0,3.889
265.5,3.908
265.0,3.930
264.5,3.872
264.0,3.893
263.5,3.924
263.0,3.905
262.5,3.871
262.0,3.830
261.5,3.858
261.0,3.872
260.5,3.872
260.0,3.861
259.5,3.860
259.0,3.887
258.5,3.862
258.0,3.880
257.5,3.915
257.0,3.934
256.5,3.939
256.0,3.922
255.5,3.895
255.0,3.891
254.5,3.923
254.0,3.901
253.5,3.892
253.0,3.882
252.5,3.886
252.0,3.888
251.5,3.880
251.0,3.898
250.5,3.890
250.0,3.893
249.5,3.923
249.0,3.949
248.5,3.911
248.0,3.934
247.5,3.900
247.0,3.923
246.5,3.964
246.0,3.953
245.5,3.936
245.0,3.946
244.5,3.964
244.0,3.930
243.5,3.925
243.0,3.904
242.5,3.913
242.0,3.937
241.5,3.958
241.0,3.963
240.5,3.954
240.0,3.939
239.5,3.937
239.0,3.922
238.5,3.927
238.0,3.970
237.5,3.955
237.0,3.956
236.5,3.951
236.0,3.942
235.5,3.932
235.0,3.937
234.5,3.946
234.0,3.930
233.5,3.951
233.0,3.959
232.5,3.949
232.0,3.927
231.5,3.908
231.0,3.914
230.5,3.937
230.0,3.924
229.5,3.956
229.0,3.953
228.5,3.927
228.0,3.962
227.5,3.935
227.0,3.927
226.5,3.939
226.0,3.962
225.5,3.944
225.0,3.950
224.5,3.924
224.0,3.892
223.5,3.885
223.0,3.887
222.5,3.913
222.0,3.920
221.5,3.945
221.0,3.952
220.5,3.950
220.0,3.915
219.5,3.928
219.0,3.917
218.5,3.920
218.0,3.936
217.5,3.940
217.0,3.942
216.5,3.931
216.0,3.934
215.5,3.923
215.0,3.910
214.5,3.915
214.0,3.914
213.5,3.907
213.0,3.920
212.5,3.911
212.0,3.908
211.5,3.876
211.0,3.909
210.5,3.926
210.0,3.925
209.5,3.920
209.0,3.942
208.5,3.949
208.0,3.942
207.5,3.941
207.0,3.940
206.5,3.928
206.0,3.944
205.5,3.920
205.0,3.906
204.5,3.921
204.0,3.933
203.5,3.898
203.0,3.889
202.5,3.914
202.0,3.925
201.5,3.913
201.0,3.903
200.5,3.912
200.0,3.966
