"PHT07S12.SPC"
WL/nm,Abs
900.0,0.131
899.5,0.131
899.0,0.131
898.5,0.131
898.0,0.131
897.5,0.131
897.0,0.131
896.5,0.131
896.0,0.131
895.5,0.131
895.0,0.131
894.5,0.131
894.0,0.131
893.5,0.131
893.0,0.131
892.5,0.131
892.0,0.131
891.5,0.131
891.0,0.130
890.5,0.130
890.0,0.130
889.5,0.130
889.0,0.130
888.5,0.130
888.0,0.130
887.5,0.130
887.0,0.131
886.5,0.131
886.0,0.132
885.5,0.132
885.0,0.132
884.5,0.133
884.0,0.133
883.5,0.133
883.0,0.134
882.5,0.134
882.0,0.134
881.5,0.134
881.0,0.135
880.5,0.135
880.0,0.135
879.5,0.135
879.0,0.136
878.5,0.136
878.0,0.136
877.5,0.136
877.0,0.136
876.5,0.136
876.0,0.136
875.5,0.136
875.0,0.136
874.5,0.136
874.0,0.136
873.5,0.135
873.0,0.135
872.5,0.135
872.0,0.134
871.5,0.134
871.0,0.134
870.5,0.133
870.0,0.133
869.5,0.133
869.0,0.132
868.5,0.132
868.0,0.132
867.5,0.132
867.0,0.131
866.5,0.131
866.0,0.131
865.5,0.131
865.0,0.131
864.5,0.130
864.0,0.130
863.5,0.130
863.0,0.130
862.5,0.130
862.0,0.130
861.5,0.130
861.0,0.130
860.5,0.130
860.0,0.130
859.5,0.130
859.0,0.129
858.5,0.129
858.0,0.129
857.5,0.129
857.0,0.129
856.5,0.129
856.0,0.129
855.5,0.129
855.0,0.129
854.5,0.129
854.0,0.129
853.5,0.129
853.0,0.129
852.5,0.129
852.0,0.129
851.5,0.129
851.0,0.129
850.5,0.129
850.0,0.129
849.5,0.129
849.0,0.129
848.5,0.129
848.0,0.129
847.5,0.129
847.0,0.129
846.5,0.129
846.0,0.129
845.5,0.129
845.0,0.129
844.5,0.129
844.0,0.129
843.5,0.129
843.0,0.130
842.5,0.130
842.0,0.130
841.5,0.130
841.0,0.130
840.5,0.130
840.0,0.130
839.5,0.130
839.0,0.130
838.5,0.130
838.0,0.130
837.5,0.130
837.0,0.130
836.5,0.130
836.0,0.130
835.5,0.130
835.0,0.130
834.5,0.130
834.0,0.130
833.5,0.130
833.0,0.130
832.5,0.129
832.0,0.129
831.5,0.129
831.0,0.129
830.5,0.129
830.0,0.129
829.5,0.129
829.0,0.128
828.5,0.128
828.0,0.128
827.5,0.128
827.0,0.128
826.5,0.128
826.0,0.128
825.5,0.127
825.0,0.127
824.5,0.127
824.0,0.127
823.5,0.127
823.0,0.127
822.5,0.127
822.0,0.127
821.5,0.127
821.0,0.127
820.5,0.127
820.0,0.127
819.5,0.127
819.0,0.127
818.5,0.127
818.0,0.127
817.5,0.128
817.0,0.128
816.5,0.128
816.0,0.128
815.5,0.128
815.0,0.128
814.5,0.128
814.0,0.128
813.5,0.128
813.0,0.128
812.5,0.128
812.0,0.129
811.5,0.129
811.0,0.129
810.5,0.129
810.0,0.129
809.5,0.129
809.0,0.129
808.5,0.129
808.0,0.130
807.5,0.130
807.0,0.130
806.5,0.130
806.0,0.130
805.5,0.130
805.0,0.130
804.5,0.130
804.0,0.131
803.5,0.131
803.0,0.131
802.5,0.131
802.0,0.131
801.5,0.132
801.0,0.132
800.5,0.132
800.0,0.132
799.5,0.132
799.0,0.132
798.5,0.132
798.0,0.133
797.5,0.133
797.0,0.133
796.5,0.133
796.0,0.133
795.5,0.133
795.0,0.133
794.5,0.134
794.0,0.134
793.5,0.134
793.0,0.134
792.5,0.134
792.0,0.135
791.5,0.135
791.0,0.135
790.5,0.135
790.0,0.136
789.5,0.136
789.0,0.136
788.5,0.136
788.0,0.136
787.5,0.137
787.0,0.137
786.5,0.137
786.0,0.137
785.5,0.137
785.0,0.138
784.5,0.138
784.0,0.138
783.5,0.138
783.0,0.138
782.5,0.139
782.0,0.139
781.5,0.139
781.0,0.139
780.5,0.140
780.0,0.140
779.5,0.140
779.0,0.140
778.5,0.140
778.0,0.141
777.5,0.141
777.0,0.141
776.5,0.141
776.0,0.141
775.5,0.142
775.0,0.142
774.5,0.142
774.0,0.142
773.5,0.143
773.0,0.143
772.5,0.143
772.0,0.143
771.5,0.144
771.0,0.144
770.5,0.144
770.0,0.144
769.5,0.145
769.0,0.145
768.5,0.145
768.0,0.145
767.5,0.146
767.0,0.146
766.5,0.146
766.0,0.146
765.5,0.147
765.0,0.147
764.5,0.147
764.0,0.148
763.5,0.148
763.0,0.148
762.5,0.148
762.0,0.149
761.5,0.149
761.0,0.149
760.5,0.149
760.0,0.149
759.5,0.150
759.0,0.151
758.5,0.151
758.0,0.151
757.5,0.152
757.0,0.152
756.5,0.153
756.0,0.153
755.5,0.153
755.0,0.153
754.5,0.154
754.0,0.154
753.5,0.155
753.0,0.155
752.5,0.155
752.0,0.156
751.5,0.156
751.0,0.157
750.5,0.157
750.0,0.157
749.5,0.158
749.0,0.158
748.5,0.159
748.0,0.159
747.5,0.160
747.0,0.160
746.5,0.161
746.0,0.161
745.5,0.162
745.0,0.162
744.5,0.163
744.0,0.163
743.5,0.164
743.0,0.164
742.5,0.165
742.0,0.166
741.5,0.167
741.0,0.167
740.5,0.168
740.0,0.168
739.5,0.169
739.0,0.170
738.5,0.171
738.0,0.171
737.5,0.172
737.0,0.173
736.5,0.174
736.0,0.174
735.5,0.175
735.0,0.176
734.5,0.177
734.0,0.177
733.5,0.178
733.0,0.179
732.5,0.180
732.0,0.181
731.5,0.182
731.0,0.183
730.5,0.184
730.0,0.185
729.5,0.186
729.0,0.187
728.5,0.188
728.0,0.190
727.5,0.191
727.0,0.192
726.5,0.194
726.0,0.195
725.5,0.197
725.0,0.198
724.5,0.200
724.0,0.202
723.5,0.204
723.0,0.205
722.5,0.207
722.0,0.209
721.5,0.212
721.0,0.213
720.5,0.216
720.0,0.218
719.5,0.221
719.0,0.223
718.5,0.226
718.0,0.229
717.5,0.231
717.0,0.234
716.5,0.237
716.0,0.240
715.5,0.244
715.0,0.247
714.5,0.250
714.0,0.254
713.5,0.258
713.0,0.262
712.5,0.266
712.0,0.270
711.5,0.274
711.0,0.278
710.5,0.283
710.0,0.287
709.5,0.292
709.0,0.298
708.5,0.303
708.0,0.310
707.5,0.316
707.0,0.322
706.5,0.328
706.0,0.334
705.5,0.341
705.0,0.348
704.5,0.355
704.0,0.362
703.5,0.370
703.0,0.378
702.5,0.386
702.0,0.394
701.5,0.403
701.0,0.412
700.5,0.421
700.0,0.431
699.5,0.441
699.0,0.451
698.5,0.463
698.0,0.474
697.5,0.486
697.0,0.498
696.5,0.510
696.0,0.522
695.5,0.536
695.0,0.549
694.5,0.563
694.0,0.577
693.5,0.592
693.0,0.607
692.5,0.623
692.0,0.639
691.5,0.656
691.0,0.674
690.5,0.692
690.0,0.711
689.5,0.731
689.0,0.752
688.5,0.773
688.0,0.794
687.5,0.816
687.0,0.839
686.5,0.863
686.0,0.888
685.5,0.914
685.0,0.941
684.5,0.967
684.0,0.995
683.5,1.023
683.0,1.051
682.5,1.081
682.0,1.111
681.5,1.143
681.0,1.175
680.5,1.208
680.0,1.242
679.5,1.278
679.0,1.313
678.5,1.350
678.0,1.387
677.5,1.425
677.0,1.464
676.5,1.502
676.0,1.541
675.5,1.580
675.0,1.619
674.5,1.660
674.0,1.700
673.5,1.742
673.0,1.784
672.5,1.825
672.0,1.868
671.5,1.911
671.0,1.956
670.5,1.998
670.0,2.039
669.5,2.079
669.0,2.117
668.5,2.155
668.0,2.190
667.5,2.224
667.0,2.255
666.5,2.284
666.0,2.311
665.5,2.336
665.0,2.358
664.5,2.378
664.0,2.395
663.5,2.410
663.0,2.423
662.5,2.435
662.0,2.445
661.5,2.454
661.0,2.462
660.5,2.469
660.0,2.475
659.5,2.480
659.0,2.484
658.5,2.487
658.0,2.490
657.5,2.492
657.0,2.494
656.5,2.496
656.0,2.497
655.5,2.498
655.0,2.499
654.5,2.500
654.0,2.501
653.5,2.501
653.0,2.502
652.5,2.502
652.0,2.502
651.5,2.503
651.0,2.503
650.5,2.489
650.0,2.463
649.5,2.441
649.0,2.440
648.5,2.439
648.0,2.438
647.5,2.437
647.0,2.434
646.5,2.432
646.0,2.429
645.5,2.425
645.0,2.420
644.5,2.415
644.0,2.410
643.5,2.404
643.0,2.398
642.5,2.391
642.0,2.384
641.5,2.377
641.0,2.371
640.5,2.364
640.0,2.358
639.5,2.352
639.0,2.347
638.5,2.342
638.0,2.339
637.5,2.336
637.0,2.334
636.5,2.333
636.0,2.332
635.5,2.332
635.0,2.333
634.5,2.335
634.0,2.337
633.5,2.339
633.0,2.341
632.5,2.343
632.0,2.345
631.5,2.348
631.0,2.349
630.5,2.351
630.0,2.352
629.5,2.352
629.0,2.353
628.5,2.353
628.0,2.353
627.5,2.353
627.0,2.352
626.5,2.352
626.0,2.351
625.5,2.351
625.0,2.350
624.5,2.350
624.0,2.349
623.5,2.349
623.0,2.348
622.5,2.347
622.0,2.346
621.5,2.345
621.0,2.344
620.5,2.343
620.0,2.343
619.5,2.342
619.0,2.341
618.5,2.341
618.0,2.340
617.5,2.339
617.0,2.337
616.5,2.337
616.0,2.336
615.5,2.335
615.0,2.333
614.5,2.333
614.0,2.332
613.5,2.331
613.0,2.330
612.5,2.329
612.0,2.328
611.5,2.327
611.0,2.326
610.5,2.325
610.0,2.324
609.5,2.322
609.0,2.322
608.5,2.321
608.0,2.319
607.5,2.318
607.0,2.317
606.5,2.316
606.0,2.315
605.5,2.314
605.0,2.313
604.5,2.312
604.0,2.311
603.5,2.309
603.0,2.309
602.5,2.307
602.0,2.306
601.5,2.305
601.0,2.303
600.5,2.302
600.0,2.301
599.5,2.300
599.0,2.299
598.5,2.297
598.0,2.296
597.5,2.295
597.0,2.293
596.5,2.293
596.0,2.291
595.5,2.290
595.0,2.289
594.5,2.287
594.0,2.286
593.5,2.284
593.0,2.283
592.5,2.282
592.0,2.281
591.5,2.280
591.0,2.278
590.5,2.277
590.0,2.276
589.5,2.274
589.0,2.273
588.5,2.271
588.0,2.270
587.5,2.269
587.0,2.267
586.5,2.266
586.0,2.265
585.5,2.264
585.0,2.262
584.5,2.261
584.0,2.259
583.5,2.258
583.0,2.256
582.5,2.255
582.0,2.253
581.5,2.252
581.0,2.250
580.5,2.249
580.0,2.248
579.5,2.247
579.0,2.245
578.5,2.243
578.0,2.242
577.5,2.241
577.0,2.239
576.5,2.238
576.0,2.236
575.5,2.234
575.0,2.233
574.5,2.231
574.0,2.229
573.5,2.228
573.0,2.227
572.5,2.225
572.0,2.223
571.5,2.222
571.0,2.220
570.5,2.218
570.0,2.217
569.5,2.216
569.0,2.214
568.5,2.212
568.0,2.210
567.5,2.209
567.0,2.207
566.5,2.206
566.0,2.204
565.5,2.202
565.0,2.201
564.5,2.199
564.0,2.198
563.5,2.196
563.0,2.194
562.5,2.193
562.0,2.191
561.5,2.189
561.0,2.188
560.5,2.186
560.0,2.184
559.5,2.182
559.0,2.181
558.5,2.179
558.0,2.177
557.5,2.175
557.0,2.173
556.5,2.172
556.0,2.170
555.5,2.168
555.0,2.166
554.5,2.164
554.0,2.162
553.5,2.161
553.0,2.159
552.5,2.157
552.0,2.155
551.5,2.154
551.0,2.152
550.5,2.149
550.0,2.147
549.5,2.145
549.0,2.143
548.5,2.141
548.0,2.138
547.5,2.136
547.0,2.134
546.5,2.132
546.0,2.130
545.5,2.128
545.0,2.125
544.5,2.122
544.0,2.119
543.5,2.117
543.0,2.114
542.5,2.111
542.0,2.108
541.5,2.105
541.0,2.102
540.5,2.099
540.0,2.096
539.5,2.092
539.0,2.088
538.5,2.085
538.0,2.081
537.5,2.077
537.0,2.072
536.5,2.237
536.0,2.662
535.5,3.082
535.0,3.122
534.5,3.120
534.0,3.123
533.5,3.123
533.0,3.118
532.5,3.118
532.0,3.115
531.5,3.117
531.0,3.116
530.5,3.115
530.0,3.116
529.5,3.124
529.0,3.151
528.5,3.176
528.0,3.178
527.5,3.180
527.0,3.176
526.5,3.176
526.0,3.172
525.5,3.173
525.0,3.172
524.5,3.171
524.0,3.175
523.5,3.169
523.0,3.169
522.5,3.169
522.0,3.169
521.5,3.172
521.0,3.172
520.5,3.172
520.0,3.168
519.5,3.164
519.0,3.168
518.5,3.166
518.0,3.170
517.5,3.168
517.0,3.165
516.5,3.166
516.0,3.162
515.5,3.164
515.0,3.165
514.5,3.164
514.0,3.164
513.5,3.161
513.0,3.168
512.5,3.164
512.0,3.168
511.5,3.171
511.0,3.167
510.5,3.164
510.0,3.165
509.5,3.169
509.0,3.170
508.5,3.169
508.0,3.170
507.5,3.169
507.0,3.171
506.5,3.176
506.0,3.174
505.5,3.176
505.0,3.170
504.5,3.172
504.0,3.170
503.5,3.171
503.0,3.172
502.5,3.167
502.0,3.169
501.5,3.164
501.0,3.165
500.5,3.165
500.0,3.161
499.5,3.167
499.0,3.166
498.5,3.165
498.0,3.163
497.5,3.161
497.0,3.160
496.5,3.159
496.0,3.159
495.5,3.159
495.0,3.164
494.5,3.167
494.0,3.162
493.5,3.163
493.0,3.161
492.5,3.162
492.0,3.160
491.5,3.157
491.0,3.156
490.5,3.148
490.0,3.152
489.5,3.154
489.0,3.155
488.5,3.155
488.0,3.150
487.5,3.156
487.0,3.160
486.5,3.154
486.0,3.150
485.5,3.145
485.0,3.149
484.5,3.145
484.0,3.147
483.5,3.145
483.0,3.145
482.5,3.147
482.0,3.140
481.5,3.137
481.0,3.134
480.5,3.135
480.0,3.140
479.5,3.137
479.0,3.135
478.5,3.126
478.0,3.126
477.5,3.132
477.0,3.129
476.5,3.127
476.0,3.121
475.5,3.115
475.0,3.119
474.5,3.123
474.0,3.125
473.5,3.120
473.0,3.113
472.5,3.110
472.0,3.107
471.5,3.105
471.0,3.099
470.5,3.100
470.0,3.099
469.5,3.098
469.0,3.102
468.5,3.097
468.0,3.092
467.5,3.087
467.0,3.086
466.5,3.088
466.0,3.084
465.5,3.078
465.0,3.072
464.5,3.060
464.0,3.058
463.5,3.053
463.0,3.053
462.5,3.047
462.0,3.039
461.5,3.034
461.0,3.025
460.5,3.021
460.0,3.013
459.5,3.006
459.0,3.005
458.5,2.996
458.0,2.989
457.5,2.984
457.0,2.980
456.5,2.982
456.0,2.978
455.5,2.980
455.0,2.970
454.5,2.966
454.0,2.971
453.5,2.972
453.0,2.975
452.5,2.976
452.0,2.986
451.5,2.986
451.0,2.988
450.5,2.997
450.0,2.995
449.5,2.996
449.0,3.000
448.5,3.006
448.0,3.010
447.5,3.014
447.0,3.022
446.5,3.023
446.0,3.030
445.5,3.037
445.0,3.037
444.5,3.044
444.0,3.044
443.5,3.049
443.0,3.053
442.5,3.056
442.0,3.061
441.5,3.059
441.0,3.062
440.5,3.062
440.0,3.057
439.5,3.057
439.0,3.053
438.5,3.052
438.0,3.049
437.5,3.049
437.0,3.040
436.5,3.033
436.0,3.029
435.5,3.022
435.0,3.016
434.5,3.013
434.0,3.002
433.5,3.002
433.0,2.996
432.5,2.993
432.0,2.984
431.5,2.978
431.0,2.971
430.5,2.966
430.0,2.967
429.5,2.955
429.0,2.950
428.5,2.939
428.0,2.933
427.5,2.930
427.0,2.929
426.5,2.928
426.0,2.914
425.5,2.919
425.0,2.911
424.5,2.905
424.0,2.902
423.5,2.898
423.0,2.894
422.5,2.877
422.0,2.878
421.5,2.872
421.0,2.873
420.5,2.869
420.0,2.859
419.5,2.852
419.0,2.849
418.5,2.849
418.0,2.839
417.5,2.832
417.0,2.829
416.5,2.915
416.0,3.209
415.5,3.483
415.0,3.509
414.5,3.477
414.0,3.487
413.5,3.458
413.0,3.422
412.5,3.470
412.0,3.488
411.5,3.509
411.0,3.497
410.5,3.491
410.0,3.506
409.5,3.463
409.0,3.487
408.5,3.492
408.0,3.506
407.5,3.496
407.0,3.491
406.5,3.488
406.0,3.480
405.5,3.515
405.0,3.490
404.5,3.473
404.0,3.495
403.5,3.520
403.0,3.547
402.5,3.538
402.0,3.599
401.5,3.583
401.0,3.527
400.5,3.572
400.0,3.550
399.5,3.551
399.0,3.560
398.5,3.612
398.0,3.619
397.5,3.570
397.0,3.576
396.5,3.543
396.0,3.573
395.5,3.565
395.0,3.577
394.5,3.603
394.0,3.611
393.5,3.616
393.0,3.536
392.5,3.589
392.0,3.563
391.5,3.488
391.0,3.560
390.5,3.522
390.0,3.553
389.5,3.532
389.0,3.505
388.5,3.548
388.0,3.495
387.5,3.562
387.0,3.582
386.5,3.529
386.0,3.511
385.5,3.508
385.0,3.600
384.5,3.579
384.0,3.561
383.5,3.631
383.0,3.572
382.5,3.555
382.0,3.494
381.5,3.582
381.0,3.493
380.5,3.506
380.0,3.686
379.5,3.707
379.0,3.746
378.5,3.619
378.0,3.635
377.5,3.614
377.0,3.509
376.5,3.588
376.0,3.531
375.5,3.522
375.0,3.526
374.5,3.523
374.0,3.561
373.5,3.505
373.0,3.644
372.5,3.499
372.0,3.550
371.5,3.547
371.0,3.586
370.5,3.591
370.0,3.526
369.5,3.602
369.0,3.540
368.5,3.511
368.0,3.418
367.5,3.433
367.0,3.529
366.5,3.451
366.0,3.493
365.5,3.470
365.0,3.637
364.5,3.734
364.0,3.757
363.5,3.793
363.0,3.804
362.5,3.811
362.0,3.896
361.5,3.823
361.0,3.750
360.5,3.704
360.0,3.647
359.5,3.699
359.0,3.629
358.5,3.701
358.0,3.665
357.5,3.722
357.0,3.812
356.5,3.753
356.0,3.839
355.5,3.714
355.0,3.760
354.5,3.773
354.0,3.720
353.5,3.653
353.0,3.635
352.5,3.803
352.0,3.779
351.5,3.879
351.0,3.955
350.5,3.930
350.0,3.926
349.5,3.886
349.0,3.886
348.5,3.961
348.0,3.912
347.5,3.913
347.0,3.709
346.5,3.759
346.0,3.725
345.5,3.826
345.0,3.861
344.5,3.865
344.0,3.926
343.5,3.857
343.0,3.814
342.5,3.711
342.0,3.684
341.5,3.763
341.0,3.699
340.5,3.592
340.0,3.632
339.5,3.692
339.0,3.828
338.5,3.948
338.0,3.896
337.5,3.873
337.0,3.820
336.5,3.923
336.0,3.934
335.5,3.867
335.0,3.836
334.5,3.777
334.0,3.877
333.5,3.970
333.0,3.938
332.5,3.879
332.0,3.692
331.5,3.811
331.0,3.881
330.5,3.961
330.0,3.970
329.5,3.854
329.0,3.858
328.5,3.813
328.0,3.907
327.5,3.964
327.0,3.982
326.5,3.918
326.0,3.852
325.5,3.933
325.0,3.870
324.5,3.870
324.0,3.855
323.5,3.968
323.0,3.930
322.5,3.833
322.0,3.880
321.5,3.904
321.0,3.969
320.5,3.950
320.0,3.901
319.5,3.880
319.0,3.857
318.5,3.900
318.0,3.853
317.5,3.872
317.0,3.832
316.5,3.794
316.0,3.915
315.5,3.893
315.0,3.876
314.5,3.820
314.0,3.944
313.5,3.954
313.0,3.928
312.5,3.939
312.0,3.891
311.5,3.917
311.0,3.871
310.5,3.885
310.0,3.885
309.5,3.961
309.0,3.961
308.5,4.000
308.0,3.990
307.5,3.990
307.0,3.893
306.5,3.811
306.0,3.839
305.5,3.878
305.0,3.908
304.5,3.846
304.0,3.932
303.5,3.932
303.0,3.956
302.5,3.851
302.0,3.838
301.5,3.889
301.0,3.811
300.5,3.866
300.0,3.761
299.5,3.723
299.0,3.727
298.5,3.762
298.0,3.886
297.5,3.905
297.0,3.925
296.5,3.885
296.0,3.924
295.5,3.944
295.0,3.856
294.5,3.846
294.0,3.819
293.5,3.859
293.0,3.803
292.5,3.793
292.0,3.769
291.5,3.824
291.0,3.918
290.5,3.874
290.0,3.898
289.5,3.786
289.0,3.818
288.5,3.888
288.0,3.894
287.5,3.904
287.0,3.823
286.5,3.877
286.0,3.942
285.5,3.896
285.0,3.822
284.5,3.745
284.0,3.844
283.5,3.780
283.0,3.862
282.5,3.911
282.0,3.902
281.5,3.938
281.0,3.938
280.5,3.964
280.0,3.916
279.5,3.952
279.0,3.977
278.5,3.966
278.0,3.981
277.5,3.924
277.0,3.902
276.5,3.857
276.0,3.858
275.5,3.928
275.0,3.948
274.5,3.955
274.0,3.884
273.5,3.892
273.0,3.851
272.5,3.937
272.0,3.941
271.5,3.935
271.0,3.936
270.5,3.909
270.0,3.921
269.5,3.928
269.0,3.920
268.5,3.925
268.0,3.943
267.5,3.962
267.0,3.901
266.5,3.895
266.0,3.909
265.5,3.962
265.0,3.987
264.5,3.976
264.0,3.982
263.5,3.982
263.0,4.000
262.5,3.953
262.0,3.925
261.5,3.932
261.0,3.963
260.5,3.981
260.0,3.981
259.5,3.981
259.0,3.950
258.5,3.942
258.0,3.976
257.5,3.983
257.0,3.989
256.5,3.961
256.0,3.961
255.5,3.961
255.0,4.000
254.5,4.000
254.0,3.964
253.5,3.964
253.0,3.976
252.5,4.000
252.0,3.986
251.5,3.973
251.0,3.987
250.5,3.987
250.0,4.000
249.5,3.941
249.0,3.941
248.5,3.967
248.0,4.000
247.5,3.999
247.0,3.991
246.5,3.977
246.0,3.978
245.5,4.000
245.0,4.000
244.5,4.000
244.0,3.993
243.5,3.990
243.0,3.997
242.5,3.990
242.0,3.991
241.5,3.990
241.0,3.994
240.5,3.994
240.0,3.994
239.5,3.961
239.0,3.949
238.5,3.982
238.0,3.982
237.5,3.985
237.0,3.985
236.5,3.995
236.0,3.995
235.5,4.000
235.0,3.996
234.5,3.992
234.0,3.996
233.5,3.988
233.0,3.982
232.5,3.976
232.0,3.966
231.5,3.973
231.0,3.981
230.5,4.000
230.0,4.000
229.5,4.000
229.0,3.978
228.5,3.968
228.0,3.977
227.5,3.969
227.0,3.984
226.5,3.989
226.0,3.989
225.5,3.989
225.0,4.000
224.5,4.000
224.0,3.997
223.5,3.995
223.0,3.995
222.5,4.000
222.0,3.992
221.5,3.992
221.0,3.992
220.5,3.997
220.0,3.994
219.5,3.994
219.0,4.000
218.5,3.991
218.0,3.970
217.5,3.956
217.0,3.963
216.5,3.997
216.0,3.944
215.5,3.944
215.0,3.953
214.5,4.000
214.0,3.955
213.5,3.930
213.0,3.953
212.5,3.969
212.0,3.980
211.5,3.972
211.0,3.972
210.5,3.993
210.0,3.994
209.5,3.991
209.0,3.991
208.5,3.975
208.0,3.965
207.5,3.990
207.0,3.993
206.5,4.000
206.0,3.954
205.5,3.954
205.0,3.985
204.5,4.000
204.0,3.995
203.5,3.986
203.0,3.987
202.5,3.983
202.0,3.993
201.5,3.985
201.0,3.936
200.5,3.916
200.0,3.946
