"PHT01S63.SPC"
WL/nm,Abs
900.0,0.101
899.5,0.101
899.0,0.101
898.5,0.101
898.0,0.101
897.5,0.101
897.0,0.101
896.5,0.101
896.0,0.101
895.5,0.101
895.0,0.101
894.5,0.101
894.0,0.101
893.5,0.101
893.0,0.101
892.5,0.100
892.0,0.100
891.5,0.100
891.0,0.100
890.5,0.099
890.0,0.099
889.5,0.099
889.0,0.098
888.5,0.098
888.0,0.099
887.5,0.099
887.0,0.099
886.5,0.100
886.0,0.100
885.5,0.101
885.0,0.101
884.5,0.101
884.0,0.102
883.5,0.102
883.0,0.102
882.5,0.102
882.0,0.103
881.5,0.103
881.0,0.103
880.5,0.103
880.0,0.103
879.5,0.104
879.0,0.104
878.5,0.104
878.0,0.104
877.5,0.104
877.0,0.104
876.5,0.104
876.0,0.104
875.5,0.104
875.0,0.104
874.5,0.103
874.0,0.103
873.5,0.103
873.0,0.103
872.5,0.102
872.0,0.102
871.5,0.101
871.0,0.101
870.5,0.101
870.0,0.100
869.5,0.100
869.0,0.100
868.5,0.099
868.0,0.099
867.5,0.099
867.0,0.098
866.5,0.098
866.0,0.098
865.5,0.097
865.0,0.097
864.5,0.097
864.0,0.097
863.5,0.097
863.0,0.096
862.5,0.096
862.0,0.096
861.5,0.096
861.0,0.096
860.5,0.096
860.0,0.096
859.5,0.095
859.0,0.095
858.5,0.095
858.0,0.095
857.5,0.095
857.0,0.095
856.5,0.095
856.0,0.095
855.5,0.095
855.0,0.095
854.5,0.095
854.0,0.094
853.5,0.094
853.0,0.094
852.5,0.094
852.0,0.094
851.5,0.094
851.0,0.094
850.5,0.094
850.0,0.094
849.5,0.094
849.0,0.094
848.5,0.094
848.0,0.094
847.5,0.094
847.0,0.094
846.5,0.094
846.0,0.094
845.5,0.094
845.0,0.094
844.5,0.094
844.0,0.094
843.5,0.094
843.0,0.094
842.5,0.093
842.0,0.093
841.5,0.093
841.0,0.093
840.5,0.093
840.0,0.093
839.5,0.093
839.0,0.093
838.5,0.093
838.0,0.093
837.5,0.093
837.0,0.093
836.5,0.093
836.0,0.093
835.5,0.093
835.0,0.093
834.5,0.093
834.0,0.092
833.5,0.092
833.0,0.092
832.5,0.092
832.0,0.092
831.5,0.092
831.0,0.091
830.5,0.091
830.0,0.091
829.5,0.091
829.0,0.090
828.5,0.090
828.0,0.090
827.5,0.090
827.0,0.089
826.5,0.089
826.0,0.089
825.5,0.089
825.0,0.089
824.5,0.088
824.0,0.088
823.5,0.088
823.0,0.088
822.5,0.088
822.0,0.088
821.5,0.088
821.0,0.088
820.5,0.088
820.0,0.087
819.5,0.087
819.0,0.087
818.5,0.087
818.0,0.087
817.5,0.087
817.0,0.087
816.5,0.087
816.0,0.087
815.5,0.087
815.0,0.087
814.5,0.087
814.0,0.087
813.5,0.087
813.0,0.087
812.5,0.087
812.0,0.087
811.5,0.087
811.0,0.087
810.5,0.087
810.0,0.087
809.5,0.087
809.0,0.087
808.5,0.087
808.0,0.087
807.5,0.088
807.0,0.088
806.5,0.088
806.0,0.088
805.5,0.088
805.0,0.088
804.5,0.088
804.0,0.088
803.5,0.088
803.0,0.088
802.5,0.088
802.0,0.088
801.5,0.088
801.0,0.088
800.5,0.088
800.0,0.088
799.5,0.088
799.0,0.088
798.5,0.089
798.0,0.089
797.5,0.089
797.0,0.089
796.5,0.089
796.0,0.089
795.5,0.089
795.0,0.089
794.5,0.089
794.0,0.089
793.5,0.089
793.0,0.089
792.5,0.089
792.0,0.090
791.5,0.090
791.0,0.090
790.5,0.090
790.0,0.090
789.5,0.090
789.0,0.090
788.5,0.090
788.0,0.090
787.5,0.090
787.0,0.090
786.5,0.090
786.0,0.091
785.5,0.091
785.0,0.091
784.5,0.091
784.0,0.091
783.5,0.091
783.0,0.091
782.5,0.091
782.0,0.091
781.5,0.091
781.0,0.091
780.5,0.091
780.0,0.091
779.5,0.091
779.0,0.092
778.5,0.092
778.0,0.092
777.5,0.092
777.0,0.092
776.5,0.092
776.0,0.092
775.5,0.092
775.0,0.092
774.5,0.093
774.0,0.093
773.5,0.093
773.0,0.093
772.5,0.093
772.0,0.093
771.5,0.093
771.0,0.093
770.5,0.093
770.0,0.093
769.5,0.093
769.0,0.093
768.5,0.093
768.0,0.094
767.5,0.094
767.0,0.094
766.5,0.094
766.0,0.094
765.5,0.094
765.0,0.094
764.5,0.094
764.0,0.094
763.5,0.094
763.0,0.094
762.5,0.094
762.0,0.095
761.5,0.095
761.0,0.095
760.5,0.095
760.0,0.095
759.5,0.095
759.0,0.095
758.5,0.095
758.0,0.095
757.5,0.096
757.0,0.096
756.5,0.096
756.0,0.096
755.5,0.096
755.0,0.096
754.5,0.096
754.0,0.097
753.5,0.097
753.0,0.097
752.5,0.097
752.0,0.097
751.5,0.097
751.0,0.097
750.5,0.097
750.0,0.097
749.5,0.097
749.0,0.098
748.5,0.098
748.0,0.098
747.5,0.098
747.0,0.098
746.5,0.098
746.0,0.099
745.5,0.099
745.0,0.099
744.5,0.099
744.0,0.099
743.5,0.100
743.0,0.100
742.5,0.100
742.0,0.100
741.5,0.100
741.0,0.101
740.5,0.101
740.0,0.101
739.5,0.101
739.0,0.101
738.5,0.102
738.0,0.102
737.5,0.102
737.0,0.102
736.5,0.102
736.0,0.103
735.5,0.103
735.0,0.103
734.5,0.103
734.0,0.104
733.5,0.104
733.0,0.104
732.5,0.104
732.0,0.104
731.5,0.105
731.0,0.105
730.5,0.105
730.0,0.105
729.5,0.106
729.0,0.106
728.5,0.106
728.0,0.107
727.5,0.107
727.0,0.108
726.5,0.108
726.0,0.109
725.5,0.109
725.0,0.110
724.5,0.111
724.0,0.111
723.5,0.112
723.0,0.113
722.5,0.113
722.0,0.114
721.5,0.115
721.0,0.116
720.5,0.117
720.0,0.118
719.5,0.119
719.0,0.120
718.5,0.121
718.0,0.122
717.5,0.123
717.0,0.125
716.5,0.126
716.0,0.127
715.5,0.129
715.0,0.130
714.5,0.131
714.0,0.133
713.5,0.135
713.0,0.136
712.5,0.138
712.0,0.140
711.5,0.142
711.0,0.144
710.5,0.146
710.0,0.148
709.5,0.150
709.0,0.152
708.5,0.155
708.0,0.158
707.5,0.160
707.0,0.163
706.5,0.166
706.0,0.169
705.5,0.172
705.0,0.175
704.5,0.178
704.0,0.182
703.5,0.185
703.0,0.189
702.5,0.193
702.0,0.197
701.5,0.200
701.0,0.205
700.5,0.209
700.0,0.214
699.5,0.218
699.0,0.223
698.5,0.229
698.0,0.234
697.5,0.240
697.0,0.245
696.5,0.251
696.0,0.257
695.5,0.263
695.0,0.269
694.5,0.276
694.0,0.283
693.5,0.290
693.0,0.298
692.5,0.305
692.0,0.313
691.5,0.322
691.0,0.330
690.5,0.339
690.0,0.349
689.5,0.358
689.0,0.368
688.5,0.379
688.0,0.389
687.5,0.400
687.0,0.412
686.5,0.424
686.0,0.436
685.5,0.449
685.0,0.462
684.5,0.476
684.0,0.489
683.5,0.503
683.0,0.518
682.5,0.533
682.0,0.549
681.5,0.565
681.0,0.582
680.5,0.600
680.0,0.618
679.5,0.636
679.0,0.655
678.5,0.674
678.0,0.695
677.5,0.715
677.0,0.736
676.5,0.757
676.0,0.779
675.5,0.801
675.0,0.824
674.5,0.848
674.0,0.872
673.5,0.896
673.0,0.922
672.5,0.949
672.0,0.976
671.5,1.006
671.0,1.036
670.5,1.067
670.0,1.098
669.5,1.129
669.0,1.162
668.5,1.195
668.0,1.229
667.5,1.263
667.0,1.298
666.5,1.334
666.0,1.370
665.5,1.406
665.0,1.444
664.5,1.482
664.0,1.520
663.5,1.557
663.0,1.594
662.5,1.631
662.0,1.670
661.5,1.710
661.0,1.750
660.5,1.788
660.0,1.828
659.5,1.867
659.0,1.906
658.5,1.945
658.0,1.982
657.5,2.019
657.0,2.054
656.5,2.087
656.0,2.118
655.5,2.148
655.0,2.176
654.5,2.204
654.0,2.229
653.5,2.253
653.0,2.276
652.5,2.296
652.0,2.315
651.5,2.332
651.0,2.347
650.5,2.354
650.0,2.341
649.5,2.326
649.0,2.330
648.5,2.338
648.0,2.344
647.5,2.349
647.0,2.352
646.5,2.354
646.0,2.355
645.5,2.355
645.0,2.354
644.5,2.352
644.0,2.350
643.5,2.346
643.0,2.342
642.5,2.337
642.0,2.332
641.5,2.327
641.0,2.321
640.5,2.316
640.0,2.310
639.5,2.305
639.0,2.301
638.5,2.297
638.0,2.294
637.5,2.292
637.0,2.290
636.5,2.289
636.0,2.289
635.5,2.290
635.0,2.291
634.5,2.293
634.0,2.296
633.5,2.298
633.0,2.301
632.5,2.303
632.0,2.306
631.5,2.309
631.0,2.310
630.5,2.312
630.0,2.314
629.5,2.315
629.0,2.316
628.5,2.317
628.0,2.317
627.5,2.318
627.0,2.317
626.5,2.317
626.0,2.317
625.5,2.316
625.0,2.316
624.5,2.315
624.0,2.315
623.5,2.314
623.0,2.314
622.5,2.313
622.0,2.313
621.5,2.312
621.0,2.311
620.5,2.310
620.0,2.309
619.5,2.309
619.0,2.308
618.5,2.307
618.0,2.306
617.5,2.305
617.0,2.304
616.5,2.304
616.0,2.303
615.5,2.302
615.0,2.301
614.5,2.300
614.0,2.299
613.5,2.298
613.0,2.297
612.5,2.296
612.0,2.295
611.5,2.294
611.0,2.293
610.5,2.292
610.0,2.291
609.5,2.289
609.0,2.289
608.5,2.287
608.0,2.286
607.5,2.285
607.0,2.284
606.5,2.283
606.0,2.282
605.5,2.281
605.0,2.280
604.5,2.279
604.0,2.277
603.5,2.276
603.0,2.275
602.5,2.274
602.0,2.273
601.5,2.271
601.0,2.270
600.5,2.269
600.0,2.268
599.5,2.267
599.0,2.266
598.5,2.264
598.0,2.263
597.5,2.261
597.0,2.260
596.5,2.259
596.0,2.258
595.5,2.256
595.0,2.255
594.5,2.253
594.0,2.252
593.5,2.251
593.0,2.250
592.5,2.249
592.0,2.247
591.5,2.246
591.0,2.244
590.5,2.243
590.0,2.242
589.5,2.240
589.0,2.239
588.5,2.238
588.0,2.236
587.5,2.235
587.0,2.233
586.5,2.232
586.0,2.230
585.5,2.229
585.0,2.227
584.5,2.226
584.0,2.225
583.5,2.223
583.0,2.221
582.5,2.220
582.0,2.218
581.5,2.216
581.0,2.215
580.5,2.213
580.0,2.212
579.5,2.210
579.0,2.209
578.5,2.207
578.0,2.205
577.5,2.204
577.0,2.202
576.5,2.200
576.0,2.198
575.5,2.197
575.0,2.195
574.5,2.193
574.0,2.191
573.5,2.189
573.0,2.187
572.5,2.185
572.0,2.183
571.5,2.181
571.0,2.179
570.5,2.177
570.0,2.175
569.5,2.173
569.0,2.171
568.5,2.168
568.0,2.165
567.5,2.163
567.0,2.160
566.5,2.158
566.0,2.155
565.5,2.153
565.0,2.151
564.5,2.148
564.0,2.146
563.5,2.143
563.0,2.140
562.5,2.137
562.0,2.134
561.5,2.131
561.0,2.128
560.5,2.125
560.0,2.121
559.5,2.118
559.0,2.115
558.5,2.112
558.0,2.108
557.5,2.104
557.0,2.101
556.5,2.097
556.0,2.093
555.5,2.089
555.0,2.084
554.5,2.080
554.0,2.077
553.5,2.072
553.0,2.068
552.5,2.063
552.0,2.059
551.5,2.054
551.0,2.049
550.5,2.045
550.0,2.040
549.5,2.034
549.0,2.028
548.5,2.023
548.0,2.018
547.5,2.013
547.0,2.007
546.5,2.002
546.0,1.996
545.5,1.991
545.0,1.985
544.5,1.980
544.0,1.974
543.5,1.968
543.0,1.962
542.5,1.956
542.0,1.950
541.5,1.944
541.0,1.938
540.5,1.932
540.0,1.926
539.5,1.919
539.0,1.913
538.5,1.907
538.0,1.901
537.5,1.894
537.0,1.888
536.5,1.954
536.0,2.130
535.5,2.304
535.0,2.314
534.5,2.306
534.0,2.298
533.5,2.291
533.0,2.284
532.5,2.278
532.0,2.272
531.5,2.266
531.0,2.260
530.5,2.255
530.0,2.249
529.5,2.246
529.0,2.268
528.5,2.291
528.0,2.297
527.5,2.294
527.0,2.290
526.5,2.286
526.0,2.284
525.5,2.281
525.0,2.279
524.5,2.277
524.0,2.275
523.5,2.274
523.0,2.273
522.5,2.271
522.0,2.271
521.5,2.271
521.0,2.272
520.5,2.272
520.0,2.273
519.5,2.273
519.0,2.275
518.5,2.277
518.0,2.280
517.5,2.281
517.0,2.284
516.5,2.287
516.0,2.289
515.5,2.293
515.0,2.297
514.5,2.300
514.0,2.305
513.5,2.309
513.0,2.314
512.5,2.318
512.0,2.323
511.5,2.329
511.0,2.334
510.5,2.341
510.0,2.347
509.5,2.353
509.0,2.360
508.5,2.368
508.0,2.375
507.5,2.382
507.0,2.389
506.5,2.397
506.0,2.405
505.5,2.414
505.0,2.422
504.5,2.430
504.0,2.439
503.5,2.447
503.0,2.455
502.5,2.465
502.0,2.474
501.5,2.483
501.0,2.491
500.5,2.499
500.0,2.509
499.5,2.518
499.0,2.528
498.5,2.536
498.0,2.546
497.5,2.555
497.0,2.565
496.5,2.575
496.0,2.583
495.5,2.594
495.0,2.604
494.5,2.612
494.0,2.621
493.5,2.630
493.0,2.641
492.5,2.653
492.0,2.662
491.5,2.672
491.0,2.682
490.5,2.691
490.0,2.702
489.5,2.712
489.0,2.723
488.5,2.732
488.0,2.740
487.5,2.751
487.0,2.760
486.5,2.769
486.0,2.776
485.5,2.783
485.0,2.795
484.5,2.804
484.0,2.812
483.5,2.819
483.0,2.827
482.5,2.837
482.0,2.843
481.5,2.850
481.0,2.857
480.5,2.864
480.0,2.872
479.5,2.877
479.0,2.886
478.5,2.891
478.0,2.897
477.5,2.904
477.0,2.912
476.5,2.917
476.0,2.921
475.5,2.920
475.0,2.927
474.5,2.932
474.0,2.934
473.5,2.940
473.0,2.938
472.5,2.942
472.0,2.946
471.5,2.947
471.0,2.953
470.5,2.954
470.0,2.954
469.5,2.954
469.0,2.958
468.5,2.964
468.0,2.963
467.5,2.964
467.0,2.967
466.5,2.968
466.0,2.971
465.5,2.972
465.0,2.971
464.5,2.967
464.0,2.964
463.5,2.967
463.0,2.964
462.5,2.959
462.0,2.959
461.5,2.951
461.0,2.948
460.5,2.947
460.0,2.944
459.5,2.940
459.0,2.939
458.5,2.932
458.0,2.928
457.5,2.923
457.0,2.922
456.5,2.921
456.0,2.919
455.5,2.924
455.0,2.921
454.5,2.919
454.0,2.919
453.5,2.920
453.0,2.925
452.5,2.928
452.0,2.929
451.5,2.933
451.0,2.932
450.5,2.938
450.0,2.947
449.5,2.956
449.0,2.964
448.5,2.964
448.0,2.967
447.5,2.973
447.0,2.977
446.5,2.979
446.0,2.982
445.5,2.990
445.0,2.994
444.5,3.001
444.0,3.003
443.5,3.005
443.0,3.012
442.5,3.013
442.0,3.013
441.5,3.016
441.0,3.017
440.5,3.015
440.0,3.014
439.5,3.012
439.0,3.013
438.5,3.008
438.0,3.003
437.5,2.999
437.0,2.995
436.5,2.993
436.0,2.988
435.5,2.980
435.0,2.976
434.5,2.967
434.0,2.961
433.5,2.958
433.0,2.951
432.5,2.947
432.0,2.941
431.5,2.936
431.0,2.927
430.5,2.921
430.0,2.920
429.5,2.914
429.0,2.908
428.5,2.903
428.0,2.901
427.5,2.894
427.0,2.888
426.5,2.884
426.0,2.878
425.5,2.872
425.0,2.865
424.5,2.862
424.0,2.855
423.5,2.849
423.0,2.848
422.5,2.847
422.0,2.843
421.5,2.836
421.0,2.825
420.5,2.823
420.0,2.818
419.5,2.814
419.0,2.810
418.5,2.805
418.0,2.804
417.5,2.789
417.0,2.780
416.5,2.878
416.0,3.104
415.5,3.303
415.0,3.336
414.5,3.366
414.0,3.362
413.5,3.321
413.0,3.325
412.5,3.356
412.0,3.381
411.5,3.365
411.0,3.329
410.5,3.342
410.0,3.328
409.5,3.353
409.0,3.359
408.5,3.350
408.0,3.378
407.5,3.367
407.0,3.380
406.5,3.396
406.0,3.366
405.5,3.354
405.0,3.344
404.5,3.352
404.0,3.362
403.5,3.363
403.0,3.367
402.5,3.342
402.0,3.365
401.5,3.364
401.0,3.347
400.5,3.336
400.0,3.314
399.5,3.361
399.0,3.333
398.5,3.306
398.0,3.336
397.5,3.343
397.0,3.335
396.5,3.288
396.0,3.273
395.5,3.272
395.0,3.307
394.5,3.328
394.0,3.260
393.5,3.256
393.0,3.277
392.5,3.270
392.0,3.231
391.5,3.185
391.0,3.178
390.5,3.176
390.0,3.159
389.5,3.158
389.0,3.149
388.5,3.100
388.0,3.112
387.5,3.106
387.0,3.140
386.5,3.144
386.0,3.078
385.5,3.060
385.0,3.041
384.5,3.035
384.0,3.036
383.5,3.005
383.0,2.981
382.5,2.961
382.0,2.939
381.5,2.935
381.0,2.926
380.5,2.918
380.0,2.897
379.5,2.874
379.0,2.857
378.5,2.838
378.0,2.845
377.5,2.811
377.0,2.783
376.5,2.742
376.0,2.726
375.5,2.766
375.0,2.752
374.5,2.712
374.0,2.710
373.5,2.691
373.0,2.697
372.5,2.652
372.0,2.634
371.5,2.626
371.0,2.614
370.5,2.606
370.0,2.579
369.5,2.564
369.0,2.566
368.5,2.543
368.0,2.510
367.5,2.489
367.0,2.495
366.5,2.500
366.0,2.447
365.5,2.439
365.0,2.430
364.5,2.437
364.0,2.422
363.5,2.429
363.0,2.426
362.5,2.420
362.0,2.383
361.5,2.372
361.0,2.359
360.5,2.338
360.0,2.332
359.5,2.324
359.0,2.320
358.5,2.307
358.0,2.297
357.5,2.293
357.0,2.277
356.5,2.271
356.0,2.266
355.5,2.260
355.0,2.251
354.5,2.236
354.0,2.225
353.5,2.210
353.0,2.201
352.5,2.198
352.0,2.190
351.5,2.181
351.0,2.165
350.5,2.158
350.0,2.153
349.5,2.137
349.0,2.134
348.5,2.125
348.0,2.111
347.5,2.103
347.0,2.095
346.5,2.098
346.0,2.099
345.5,2.093
345.0,2.085
344.5,2.077
344.0,2.067
343.5,2.065
343.0,2.065
342.5,2.066
342.0,2.051
341.5,2.041
341.0,2.038
340.5,2.028
340.0,2.022
339.5,2.007
339.0,2.008
338.5,2.003
338.0,2.013
337.5,2.013
337.0,2.021
336.5,2.024
336.0,2.030
335.5,2.035
335.0,2.046
334.5,2.047
334.0,2.062
333.5,2.077
333.0,2.097
332.5,2.112
332.0,2.119
331.5,2.139
331.0,2.157
330.5,2.175
330.0,2.199
329.5,2.220
329.0,2.254
328.5,2.274
328.0,2.294
327.5,2.317
327.0,2.332
326.5,2.364
326.0,2.377
325.5,2.408
325.0,2.474
324.5,2.554
324.0,2.597
323.5,2.588
323.0,2.619
322.5,2.649
322.0,2.688
321.5,2.692
321.0,2.696
320.5,2.739
320.0,2.836
319.5,2.882
319.0,2.944
318.5,2.981
318.0,3.025
317.5,3.053
317.0,3.088
316.5,3.125
316.0,3.075
315.5,3.196
315.0,3.237
314.5,3.247
314.0,3.266
313.5,3.191
313.0,3.278
312.5,3.263
312.0,3.206
311.5,3.305
311.0,3.275
310.5,3.308
310.0,3.290
309.5,3.239
309.0,3.255
308.5,3.266
308.0,3.224
307.5,3.226
307.0,3.233
306.5,3.406
306.0,3.404
305.5,3.308
305.0,3.162
304.5,3.131
304.0,3.121
303.5,3.204
303.0,3.198
302.5,3.198
302.0,3.117
301.5,3.121
301.0,3.116
300.5,3.138
300.0,3.170
299.5,3.167
299.0,3.287
298.5,3.324
298.0,3.242
297.5,3.282
297.0,3.262
296.5,3.355
296.0,3.478
295.5,3.505
295.0,3.542
294.5,3.495
294.0,3.590
293.5,3.663
293.0,3.584
292.5,3.659
292.0,3.718
291.5,3.794
291.0,3.732
290.5,3.737
290.0,3.703
289.5,3.592
289.0,3.616
288.5,3.658
288.0,3.656
287.5,3.689
287.0,3.683
286.5,3.680
286.0,3.672
285.5,3.598
285.0,3.680
284.5,3.699
284.0,3.731
283.5,3.738
283.0,3.718
282.5,3.680
282.0,3.632
281.5,3.704
281.0,3.732
280.5,3.740
280.0,3.774
279.5,3.772
279.0,3.787
278.5,3.768
278.0,3.709
277.5,3.699
277.0,3.677
276.5,3.790
276.0,3.782
275.5,3.751
275.0,3.768
274.5,3.777
274.0,3.746
273.5,3.688
273.0,3.747
272.5,3.682
272.0,3.707
271.5,3.747
271.0,3.784
270.5,3.848
270.0,3.815
269.5,3.861
269.0,3.831
268.5,3.803
268.0,3.809
267.5,3.766
267.0,3.767
266.5,3.786
266.0,3.753
265.5,3.837
265.0,3.806
264.5,3.842
264.0,3.849
263.5,3.794
263.0,3.816
262.5,3.792
262.0,3.855
261.5,3.865
261.0,3.864
260.5,3.867
260.0,3.831
259.5,3.860
259.0,3.846
258.5,3.835
258.0,3.897
257.5,3.938
257.0,3.935
256.5,3.853
256.0,3.839
255.5,3.838
255.0,3.835
254.5,3.852
254.0,3.806
253.5,3.830
253.0,3.855
252.5,3.820
252.0,3.853
251.5,3.834
251.0,3.859
250.5,3.896
250.0,3.894
249.5,3.932
249.0,3.939
248.5,3.919
248.0,3.921
247.5,3.908
247.0,3.969
246.5,3.933
246.0,3.934
245.5,3.918
245.0,3.941
244.5,3.914
244.0,3.900
243.5,3.929
243.0,3.937
242.5,3.940
242.0,3.930
241.5,3.916
241.0,3.942
240.5,3.944
240.0,3.895
239.5,3.905
239.0,3.899
238.5,3.962
238.0,3.936
237.5,3.948
237.0,3.937
236.5,3.988
236.0,4.000
235.5,3.992
235.0,3.984
234.5,3.953
234.0,3.969
233.5,3.992
233.0,4.000
232.5,3.984
232.0,3.947
231.5,3.946
231.0,3.937
230.5,3.925
230.0,3.902
229.5,3.872
229.0,3.905
228.5,3.915
228.0,3.934
227.5,3.977
227.0,3.983
226.5,3.966
226.0,3.908
225.5,3.901
225.0,3.930
224.5,3.931
224.0,3.970
223.5,3.900
223.0,3.873
222.5,3.906
222.0,3.952
221.5,3.922
221.0,3.891
220.5,3.928
220.0,3.951
219.5,3.976
219.0,3.986
218.5,3.951
218.0,3.943
217.5,3.899
217.0,3.927
216.5,3.957
216.0,3.918
215.5,3.907
215.0,3.930
214.5,3.966
214.0,3.903
213.5,3.898
213.0,3.931
212.5,3.971
212.0,3.984
211.5,3.956
211.0,3.916
210.5,3.928
210.0,3.940
209.5,3.913
209.0,3.879
208.5,3.914
208.0,3.943
207.5,3.899
207.0,3.869
206.5,3.889
206.0,3.989
205.5,3.990
205.0,3.952
204.5,3.909
204.0,3.917
203.5,3.966
203.0,3.884
202.5,3.876
202.0,3.875
201.5,3.843
201.0,3.842
200.5,3.863
200.0,3.980
