"PHT01S62.SPC"
WL/nm,Abs
900.0,0.101
899.5,0.101
899.0,0.101
898.5,0.101
898.0,0.101
897.5,0.101
897.0,0.101
896.5,0.101
896.0,0.101
895.5,0.101
895.0,0.101
894.5,0.101
894.0,0.101
893.5,0.101
893.0,0.101
892.5,0.101
892.0,0.100
891.5,0.100
891.0,0.100
890.5,0.100
890.0,0.099
889.5,0.099
889.0,0.099
888.5,0.099
888.0,0.099
887.5,0.099
887.0,0.100
886.5,0.100
886.0,0.101
885.5,0.101
885.0,0.101
884.5,0.102
884.0,0.102
883.5,0.102
883.0,0.102
882.5,0.103
882.0,0.103
881.5,0.103
881.0,0.103
880.5,0.104
880.0,0.104
879.5,0.104
879.0,0.104
878.5,0.104
878.0,0.104
877.5,0.104
877.0,0.104
876.5,0.104
876.0,0.104
875.5,0.104
875.0,0.104
874.5,0.104
874.0,0.103
873.5,0.103
873.0,0.103
872.5,0.102
872.0,0.102
871.5,0.102
871.0,0.101
870.5,0.101
870.0,0.100
869.5,0.100
869.0,0.100
868.5,0.099
868.0,0.099
867.5,0.099
867.0,0.098
866.5,0.098
866.0,0.098
865.5,0.098
865.0,0.097
864.5,0.097
864.0,0.097
863.5,0.097
863.0,0.097
862.5,0.097
862.0,0.096
861.5,0.096
861.0,0.096
860.5,0.096
860.0,0.096
859.5,0.096
859.0,0.096
858.5,0.095
858.0,0.095
857.5,0.095
857.0,0.095
856.5,0.095
856.0,0.095
855.5,0.095
855.0,0.095
854.5,0.095
854.0,0.095
853.5,0.095
853.0,0.095
852.5,0.095
852.0,0.095
851.5,0.095
851.0,0.094
850.5,0.094
850.0,0.094
849.5,0.094
849.0,0.094
848.5,0.094
848.0,0.094
847.5,0.094
847.0,0.094
846.5,0.094
846.0,0.094
845.5,0.094
845.0,0.094
844.5,0.094
844.0,0.094
843.5,0.094
843.0,0.094
842.5,0.094
842.0,0.094
841.5,0.094
841.0,0.094
840.5,0.094
840.0,0.094
839.5,0.094
839.0,0.093
838.5,0.093
838.0,0.093
837.5,0.093
837.0,0.093
836.5,0.093
836.0,0.093
835.5,0.093
835.0,0.093
834.5,0.093
834.0,0.093
833.5,0.093
833.0,0.092
832.5,0.092
832.0,0.092
831.5,0.092
831.0,0.092
830.5,0.091
830.0,0.091
829.5,0.091
829.0,0.091
828.5,0.090
828.0,0.090
827.5,0.090
827.0,0.090
826.5,0.090
826.0,0.089
825.5,0.089
825.0,0.089
824.5,0.089
824.0,0.089
823.5,0.089
823.0,0.089
822.5,0.088
822.0,0.088
821.5,0.088
821.0,0.088
820.5,0.088
820.0,0.088
819.5,0.088
819.0,0.088
818.5,0.087
818.0,0.087
817.5,0.087
817.0,0.088
816.5,0.088
816.0,0.088
815.5,0.088
815.0,0.088
814.5,0.088
814.0,0.087
813.5,0.088
813.0,0.088
812.5,0.088
812.0,0.088
811.5,0.088
811.0,0.088
810.5,0.088
810.0,0.088
809.5,0.088
809.0,0.088
808.5,0.088
808.0,0.088
807.5,0.088
807.0,0.088
806.5,0.088
806.0,0.088
805.5,0.088
805.0,0.088
804.5,0.088
804.0,0.088
803.5,0.088
803.0,0.088
802.5,0.088
802.0,0.089
801.5,0.089
801.0,0.089
800.5,0.089
800.0,0.089
799.5,0.089
799.0,0.089
798.5,0.089
798.0,0.089
797.5,0.089
797.0,0.089
796.5,0.089
796.0,0.089
795.5,0.089
795.0,0.089
794.5,0.089
794.0,0.089
793.5,0.090
793.0,0.090
792.5,0.090
792.0,0.090
791.5,0.090
791.0,0.090
790.5,0.090
790.0,0.090
789.5,0.090
789.0,0.090
788.5,0.090
788.0,0.090
787.5,0.091
787.0,0.091
786.5,0.091
786.0,0.091
785.5,0.091
785.0,0.091
784.5,0.091
784.0,0.091
783.5,0.091
783.0,0.091
782.5,0.091
782.0,0.091
781.5,0.092
781.0,0.092
780.5,0.092
780.0,0.092
779.5,0.092
779.0,0.092
778.5,0.092
778.0,0.092
777.5,0.092
777.0,0.093
776.5,0.093
776.0,0.093
775.5,0.093
775.0,0.093
774.5,0.093
774.0,0.093
773.5,0.093
773.0,0.093
772.5,0.093
772.0,0.093
771.5,0.093
771.0,0.093
770.5,0.094
770.0,0.094
769.5,0.094
769.0,0.094
768.5,0.094
768.0,0.094
767.5,0.094
767.0,0.094
766.5,0.094
766.0,0.094
765.5,0.094
765.0,0.094
764.5,0.094
764.0,0.094
763.5,0.095
763.0,0.095
762.5,0.095
762.0,0.095
761.5,0.095
761.0,0.095
760.5,0.095
760.0,0.095
759.5,0.095
759.0,0.096
758.5,0.096
758.0,0.096
757.5,0.096
757.0,0.096
756.5,0.096
756.0,0.096
755.5,0.096
755.0,0.096
754.5,0.096
754.0,0.097
753.5,0.097
753.0,0.097
752.5,0.097
752.0,0.097
751.5,0.097
751.0,0.097
750.5,0.098
750.0,0.098
749.5,0.098
749.0,0.098
748.5,0.098
748.0,0.098
747.5,0.098
747.0,0.098
746.5,0.099
746.0,0.099
745.5,0.099
745.0,0.099
744.5,0.099
744.0,0.100
743.5,0.100
743.0,0.100
742.5,0.100
742.0,0.100
741.5,0.101
741.0,0.101
740.5,0.101
740.0,0.101
739.5,0.101
739.0,0.102
738.5,0.102
738.0,0.102
737.5,0.102
737.0,0.102
736.5,0.103
736.0,0.103
735.5,0.103
735.0,0.103
734.5,0.103
734.0,0.104
733.5,0.104
733.0,0.104
732.5,0.104
732.0,0.105
731.5,0.105
731.0,0.105
730.5,0.105
730.0,0.106
729.5,0.106
729.0,0.106
728.5,0.106
728.0,0.107
727.5,0.108
727.0,0.108
726.5,0.108
726.0,0.109
725.5,0.109
725.0,0.110
724.5,0.111
724.0,0.111
723.5,0.112
723.0,0.113
722.5,0.113
722.0,0.114
721.5,0.115
721.0,0.116
720.5,0.117
720.0,0.118
719.5,0.119
719.0,0.120
718.5,0.121
718.0,0.122
717.5,0.123
717.0,0.125
716.5,0.126
716.0,0.127
715.5,0.129
715.0,0.130
714.5,0.132
714.0,0.133
713.5,0.135
713.0,0.136
712.5,0.138
712.0,0.140
711.5,0.142
711.0,0.144
710.5,0.146
710.0,0.148
709.5,0.150
709.0,0.152
708.5,0.155
708.0,0.157
707.5,0.160
707.0,0.163
706.5,0.166
706.0,0.169
705.5,0.172
705.0,0.175
704.5,0.178
704.0,0.181
703.5,0.185
703.0,0.189
702.5,0.192
702.0,0.196
701.5,0.200
701.0,0.204
700.5,0.209
700.0,0.213
699.5,0.218
699.0,0.223
698.5,0.228
698.0,0.233
697.5,0.239
697.0,0.244
696.5,0.250
696.0,0.256
695.5,0.263
695.0,0.269
694.5,0.275
694.0,0.282
693.5,0.290
693.0,0.297
692.5,0.305
692.0,0.313
691.5,0.321
691.0,0.329
690.5,0.338
690.0,0.348
689.5,0.358
689.0,0.368
688.5,0.378
688.0,0.388
687.5,0.399
687.0,0.410
686.5,0.423
686.0,0.435
685.5,0.448
685.0,0.461
684.5,0.474
684.0,0.488
683.5,0.502
683.0,0.517
682.5,0.532
682.0,0.548
681.5,0.564
681.0,0.581
680.5,0.598
680.0,0.616
679.5,0.634
679.0,0.653
678.5,0.673
678.0,0.693
677.5,0.713
677.0,0.734
676.5,0.755
676.0,0.777
675.5,0.799
675.0,0.822
674.5,0.845
674.0,0.869
673.5,0.894
673.0,0.920
672.5,0.947
672.0,0.975
671.5,1.004
671.0,1.034
670.5,1.064
670.0,1.095
669.5,1.127
669.0,1.159
668.5,1.192
668.0,1.226
667.5,1.260
667.0,1.295
666.5,1.331
666.0,1.367
665.5,1.404
665.0,1.441
664.5,1.479
664.0,1.516
663.5,1.553
663.0,1.590
662.5,1.628
662.0,1.667
661.5,1.707
661.0,1.746
660.5,1.785
660.0,1.825
659.5,1.864
659.0,1.903
658.5,1.941
658.0,1.980
657.5,2.016
657.0,2.051
656.5,2.084
656.0,2.116
655.5,2.146
655.0,2.175
654.5,2.202
654.0,2.228
653.5,2.252
653.0,2.274
652.5,2.295
652.0,2.314
651.5,2.332
651.0,2.347
650.5,2.353
650.0,2.340
649.5,2.326
649.0,2.330
648.5,2.338
648.0,2.344
647.5,2.348
647.0,2.352
646.5,2.354
646.0,2.355
645.5,2.355
645.0,2.354
644.5,2.352
644.0,2.350
643.5,2.346
643.0,2.342
642.5,2.337
642.0,2.332
641.5,2.326
641.0,2.321
640.5,2.316
640.0,2.310
639.5,2.306
639.0,2.301
638.5,2.297
638.0,2.294
637.5,2.292
637.0,2.290
636.5,2.290
636.0,2.290
635.5,2.290
635.0,2.291
634.5,2.293
634.0,2.296
633.5,2.298
633.0,2.301
632.5,2.303
632.0,2.306
631.5,2.309
631.0,2.311
630.5,2.313
630.0,2.314
629.5,2.315
629.0,2.316
628.5,2.317
628.0,2.317
627.5,2.318
627.0,2.317
626.5,2.317
626.0,2.316
625.5,2.316
625.0,2.316
624.5,2.316
624.0,2.315
623.5,2.314
623.0,2.313
622.5,2.313
622.0,2.312
621.5,2.312
621.0,2.311
620.5,2.310
620.0,2.310
619.5,2.309
619.0,2.308
618.5,2.307
618.0,2.306
617.5,2.305
617.0,2.304
616.5,2.304
616.0,2.303
615.5,2.302
615.0,2.301
614.5,2.300
614.0,2.299
613.5,2.298
613.0,2.297
612.5,2.296
612.0,2.295
611.5,2.294
611.0,2.293
610.5,2.292
610.0,2.291
609.5,2.290
609.0,2.289
608.5,2.288
608.0,2.287
607.5,2.285
607.0,2.284
606.5,2.283
606.0,2.282
605.5,2.281
605.0,2.280
604.5,2.279
604.0,2.277
603.5,2.276
603.0,2.275
602.5,2.274
602.0,2.273
601.5,2.272
601.0,2.271
600.5,2.270
600.0,2.269
599.5,2.267
599.0,2.266
598.5,2.264
598.0,2.263
597.5,2.262
597.0,2.261
596.5,2.260
596.0,2.258
595.5,2.257
595.0,2.255
594.5,2.254
594.0,2.253
593.5,2.252
593.0,2.250
592.5,2.249
592.0,2.248
591.5,2.246
591.0,2.245
590.5,2.243
590.0,2.242
589.5,2.240
589.0,2.239
588.5,2.238
588.0,2.236
587.5,2.235
587.0,2.233
586.5,2.232
586.0,2.230
585.5,2.229
585.0,2.228
584.5,2.226
584.0,2.225
583.5,2.223
583.0,2.222
582.5,2.220
582.0,2.218
581.5,2.217
581.0,2.215
580.5,2.214
580.0,2.212
579.5,2.211
579.0,2.209
578.5,2.207
578.0,2.206
577.5,2.204
577.0,2.202
576.5,2.200
576.0,2.198
575.5,2.197
575.0,2.194
574.5,2.193
574.0,2.191
573.5,2.189
573.0,2.187
572.5,2.185
572.0,2.183
571.5,2.181
571.0,2.179
570.5,2.177
570.0,2.175
569.5,2.173
569.0,2.171
568.5,2.168
568.0,2.166
567.5,2.163
567.0,2.161
566.5,2.158
566.0,2.156
565.5,2.154
565.0,2.151
564.5,2.148
564.0,2.146
563.5,2.144
563.0,2.141
562.5,2.138
562.0,2.134
561.5,2.131
561.0,2.128
560.5,2.125
560.0,2.122
559.5,2.118
559.0,2.115
558.5,2.112
558.0,2.108
557.5,2.105
557.0,2.101
556.5,2.097
556.0,2.093
555.5,2.089
555.0,2.084
554.5,2.080
554.0,2.076
553.5,2.072
553.0,2.068
552.5,2.063
552.0,2.059
551.5,2.054
551.0,2.049
550.5,2.045
550.0,2.039
549.5,2.034
549.0,2.029
548.5,2.023
548.0,2.018
547.5,2.012
547.0,2.007
546.5,2.002
546.0,1.997
545.5,1.991
545.0,1.985
544.5,1.980
544.0,1.974
543.5,1.968
543.0,1.962
542.5,1.956
542.0,1.950
541.5,1.944
541.0,1.938
540.5,1.932
540.0,1.926
539.5,1.920
539.0,1.914
538.5,1.907
538.0,1.901
537.5,1.894
537.0,1.888
536.5,1.955
536.0,2.130
535.5,2.305
535.0,2.315
534.5,2.307
534.0,2.299
533.5,2.291
533.0,2.285
532.5,2.279
532.0,2.272
531.5,2.265
531.0,2.260
530.5,2.255
530.0,2.249
529.5,2.247
529.0,2.269
528.5,2.292
528.0,2.297
527.5,2.293
527.0,2.290
526.5,2.288
526.0,2.285
525.5,2.283
525.0,2.279
524.5,2.278
524.0,2.276
523.5,2.275
523.0,2.274
522.5,2.273
522.0,2.273
521.5,2.273
521.0,2.273
520.5,2.273
520.0,2.273
519.5,2.274
519.0,2.276
518.5,2.278
518.0,2.281
517.5,2.283
517.0,2.285
516.5,2.288
516.0,2.291
515.5,2.294
515.0,2.297
514.5,2.301
514.0,2.306
513.5,2.310
513.0,2.315
512.5,2.320
512.0,2.324
511.5,2.330
511.0,2.336
510.5,2.342
510.0,2.349
509.5,2.354
509.0,2.362
508.5,2.369
508.0,2.376
507.5,2.384
507.0,2.391
506.5,2.399
506.0,2.408
505.5,2.415
505.0,2.424
504.5,2.432
504.0,2.441
503.5,2.449
503.0,2.458
502.5,2.468
502.0,2.476
501.5,2.486
501.0,2.494
500.5,2.502
500.0,2.510
499.5,2.519
499.0,2.530
498.5,2.539
498.0,2.548
497.5,2.559
497.0,2.568
496.5,2.577
496.0,2.586
495.5,2.595
495.0,2.605
494.5,2.615
494.0,2.625
493.5,2.635
493.0,2.643
492.5,2.655
492.0,2.664
491.5,2.674
491.0,2.686
490.5,2.695
490.0,2.705
489.5,2.716
489.0,2.725
488.5,2.734
488.0,2.742
487.5,2.752
487.0,2.762
486.5,2.771
486.0,2.781
485.5,2.790
485.0,2.799
484.5,2.807
484.0,2.815
483.5,2.823
483.0,2.831
482.5,2.839
482.0,2.846
481.5,2.854
481.0,2.860
480.5,2.866
480.0,2.872
479.5,2.879
479.0,2.883
478.5,2.891
478.0,2.898
477.5,2.902
477.0,2.910
476.5,2.911
476.0,2.917
475.5,2.926
475.0,2.931
474.5,2.935
474.0,2.932
473.5,2.935
473.0,2.940
472.5,2.945
472.0,2.950
471.5,2.951
471.0,2.954
470.5,2.958
470.0,2.957
469.5,2.958
469.0,2.960
468.5,2.960
468.0,2.964
467.5,2.968
467.0,2.966
466.5,2.969
466.0,2.968
465.5,2.973
465.0,2.971
464.5,2.968
464.0,2.966
463.5,2.964
463.0,2.964
462.5,2.963
462.0,2.959
461.5,2.955
461.0,2.946
460.5,2.943
460.0,2.947
459.5,2.938
459.0,2.933
458.5,2.926
458.0,2.923
457.5,2.921
457.0,2.919
456.5,2.922
456.0,2.919
455.5,2.915
455.0,2.914
454.5,2.913
454.0,2.921
453.5,2.922
453.0,2.921
452.5,2.927
452.0,2.930
451.5,2.935
451.0,2.942
450.5,2.944
450.0,2.945
449.5,2.947
449.0,2.955
448.5,2.961
448.0,2.966
447.5,2.971
447.0,2.971
446.5,2.976
446.0,2.984
445.5,2.987
445.0,2.993
444.5,3.000
444.0,3.004
443.5,3.007
443.0,3.009
442.5,3.013
442.0,3.013
441.5,3.011
441.0,3.016
440.5,3.012
440.0,3.015
439.5,3.015
439.0,3.010
438.5,3.008
438.0,3.006
437.5,3.000
437.0,2.998
436.5,2.991
436.0,2.987
435.5,2.978
435.0,2.974
434.5,2.972
434.0,2.963
433.5,2.958
433.0,2.954
432.5,2.949
432.0,2.941
431.5,2.934
431.0,2.927
430.5,2.919
430.0,2.919
429.5,2.916
429.0,2.912
428.5,2.907
428.0,2.899
427.5,2.892
427.0,2.885
426.5,2.881
426.0,2.878
425.5,2.868
425.0,2.864
424.5,2.860
424.0,2.861
423.5,2.858
423.0,2.849
422.5,2.845
422.0,2.839
421.5,2.833
421.0,2.831
420.5,2.827
420.0,2.823
419.5,2.816
419.0,2.811
418.5,2.808
418.0,2.802
417.5,2.796
417.0,2.785
416.5,2.870
416.0,3.099
415.5,3.333
415.0,3.385
414.5,3.397
414.0,3.401
413.5,3.386
413.0,3.404
412.5,3.392
412.0,3.341
411.5,3.375
411.0,3.403
410.5,3.378
410.0,3.401
409.5,3.370
409.0,3.350
408.5,3.337
408.0,3.356
407.5,3.380
407.0,3.382
406.5,3.371
406.0,3.358
405.5,3.370
405.0,3.388
404.5,3.350
404.0,3.350
403.5,3.319
403.0,3.309
402.5,3.338
402.0,3.333
401.5,3.338
401.0,3.332
400.5,3.341
400.0,3.362
399.5,3.314
399.0,3.330
398.5,3.319
398.0,3.294
397.5,3.316
397.0,3.293
396.5,3.278
396.0,3.280
395.5,3.252
395.0,3.249
394.5,3.212
394.0,3.237
393.5,3.258
393.0,3.249
392.5,3.216
392.0,3.155
391.5,3.138
391.0,3.162
390.5,3.192
390.0,3.202
389.5,3.148
389.0,3.121
388.5,3.127
388.0,3.116
387.5,3.125
387.0,3.105
386.5,3.087
386.0,3.066
385.5,3.034
385.0,3.046
384.5,3.009
384.0,3.007
383.5,3.011
383.0,2.983
382.5,2.982
382.0,2.986
381.5,2.952
381.0,2.932
380.5,2.902
380.0,2.889
379.5,2.866
379.0,2.848
378.5,2.842
378.0,2.816
377.5,2.804
377.0,2.785
376.5,2.766
376.0,2.763
375.5,2.734
375.0,2.724
374.5,2.705
374.0,2.684
373.5,2.681
373.0,2.658
372.5,2.647
372.0,2.636
371.5,2.616
371.0,2.609
370.5,2.577
370.0,2.562
369.5,2.549
369.0,2.547
368.5,2.547
368.0,2.498
367.5,2.489
367.0,2.484
366.5,2.482
366.0,2.461
365.5,2.431
365.0,2.436
364.5,2.442
364.0,2.418
363.5,2.414
363.0,2.400
362.5,2.393
362.0,2.387
361.5,2.367
361.0,2.351
360.5,2.347
360.0,2.339
359.5,2.336
359.0,2.317
358.5,2.310
358.0,2.302
357.5,2.293
357.0,2.282
356.5,2.270
356.0,2.265
355.5,2.256
355.0,2.237
354.5,2.239
354.0,2.225
353.5,2.219
353.0,2.205
352.5,2.194
352.0,2.190
351.5,2.178
351.0,2.171
350.5,2.161
350.0,2.150
349.5,2.143
349.0,2.130
348.5,2.125
348.0,2.117
347.5,2.106
347.0,2.100
346.5,2.094
346.0,2.096
345.5,2.090
345.0,2.073
344.5,2.072
344.0,2.072
343.5,2.065
343.0,2.060
342.5,2.052
342.0,2.048
341.5,2.038
341.0,2.044
340.5,2.032
340.0,2.015
339.5,2.004
339.0,2.005
338.5,2.006
338.0,2.007
337.5,2.015
337.0,2.020
336.5,2.026
336.0,2.033
335.5,2.042
335.0,2.046
334.5,2.059
334.0,2.067
333.5,2.078
333.0,2.085
332.5,2.103
332.0,2.119
331.5,2.134
331.0,2.155
330.5,2.181
330.0,2.199
329.5,2.225
329.0,2.240
328.5,2.271
328.0,2.283
327.5,2.308
327.0,2.347
326.5,2.376
326.0,2.407
325.5,2.437
325.0,2.463
324.5,2.517
324.0,2.552
323.5,2.585
323.0,2.607
322.5,2.628
322.0,2.663
321.5,2.687
321.0,2.747
320.5,2.791
320.0,2.800
319.5,2.827
319.0,2.873
318.5,2.953
318.0,3.052
317.5,3.080
317.0,3.176
316.5,3.220
316.0,3.199
315.5,3.194
315.0,3.205
314.5,3.237
314.0,3.254
313.5,3.342
313.0,3.255
312.5,3.193
312.0,3.224
311.5,3.194
311.0,3.242
310.5,3.295
310.0,3.310
309.5,3.249
309.0,3.205
308.5,3.142
308.0,3.236
307.5,3.247
307.0,3.380
306.5,3.267
306.0,3.186
305.5,3.137
305.0,3.123
304.5,3.165
304.0,3.173
303.5,3.190
303.0,3.190
302.5,3.144
302.0,3.209
301.5,3.195
301.0,3.179
300.5,3.211
300.0,3.211
299.5,3.214
299.0,3.192
298.5,3.236
298.0,3.281
297.5,3.273
297.0,3.330
296.5,3.316
296.0,3.374
295.5,3.513
295.0,3.515
294.5,3.582
294.0,3.602
293.5,3.652
293.0,3.651
292.5,3.604
292.0,3.668
291.5,3.635
291.0,3.625
290.5,3.701
290.0,3.657
289.5,3.767
289.0,3.729
288.5,3.713
288.0,3.719
287.5,3.698
287.0,3.728
286.5,3.631
286.0,3.595
285.5,3.696
285.0,3.694
284.5,3.731
284.0,3.712
283.5,3.771
283.0,3.798
282.5,3.806
282.0,3.792
281.5,3.739
281.0,3.724
280.5,3.789
280.0,3.760
279.5,3.765
279.0,3.682
278.5,3.665
278.0,3.668
277.5,3.716
277.0,3.780
276.5,3.800
276.0,3.869
275.5,3.764
275.0,3.707
274.5,3.684
274.0,3.671
273.5,3.737
273.0,3.792
272.5,3.758
272.0,3.751
271.5,3.638
271.0,3.632
270.5,3.666
270.0,3.788
269.5,3.858
269.0,3.860
268.5,3.775
268.0,3.747
267.5,3.750
267.0,3.725
266.5,3.736
266.0,3.814
265.5,3.775
265.0,3.800
264.5,3.770
264.0,3.834
263.5,3.865
263.0,3.798
262.5,3.775
262.0,3.809
261.5,3.851
261.0,3.834
260.5,3.768
260.0,3.761
259.5,3.770
259.0,3.793
258.5,3.792
258.0,3.820
257.5,3.845
257.0,3.780
256.5,3.798
256.0,3.819
255.5,3.849
255.0,3.888
254.5,3.874
254.0,3.880
253.5,3.860
253.0,3.844
252.5,3.868
252.0,3.827
251.5,3.845
251.0,3.825
250.5,3.851
250.0,3.897
249.5,3.911
249.0,3.914
248.5,3.924
248.0,3.943
247.5,3.893
247.0,3.871
246.5,3.916
246.0,3.931
245.5,3.931
245.0,3.945
244.5,3.942
244.0,3.923
243.5,3.880
243.0,3.881
242.5,3.896
242.0,3.910
241.5,3.931
241.0,3.922
240.5,3.943
240.0,3.964
239.5,3.959
239.0,3.962
238.5,3.931
238.0,3.911
237.5,3.915
237.0,3.938
236.5,3.957
236.0,3.944
235.5,3.915
235.0,3.923
234.5,3.932
234.0,3.946
233.5,3.906
233.0,3.946
232.5,3.904
232.0,3.904
231.5,3.915
231.0,3.946
230.5,3.922
230.0,3.884
229.5,3.955
229.0,3.929
228.5,3.919
228.0,3.864
227.5,3.890
227.0,3.946
226.5,3.901
226.0,3.876
225.5,3.907
225.0,3.939
224.5,3.940
224.0,3.909
223.5,3.924
223.0,3.920
222.5,3.940
222.0,3.912
221.5,3.905
221.0,3.928
220.5,3.923
220.0,3.966
219.5,3.962
219.0,3.934
218.5,3.919
218.0,3.901
217.5,3.936
217.0,3.942
216.5,3.926
216.0,3.906
215.5,3.956
215.0,3.966
214.5,3.953
214.0,3.959
213.5,3.913
213.0,3.896
212.5,3.938
212.0,3.935
211.5,3.910
211.0,3.869
210.5,3.900
210.0,3.935
209.5,3.955
209.0,3.995
208.5,3.957
208.0,3.907
207.5,3.885
207.0,3.878
206.5,3.929
206.0,3.949
205.5,3.916
205.0,3.876
204.5,3.862
204.0,3.868
203.5,3.871
203.0,3.863
202.5,3.868
202.0,3.883
201.5,3.896
201.0,3.870
200.5,3.878
200.0,3.916
