"PHT06S62.SPC"
WL/nm,Abs
900.0,0.090
899.5,0.090
899.0,0.090
898.5,0.090
898.0,0.090
897.5,0.090
897.0,0.090
896.5,0.090
896.0,0.090
895.5,0.090
895.0,0.090
894.5,0.090
894.0,0.090
893.5,0.090
893.0,0.089
892.5,0.089
892.0,0.089
891.5,0.089
891.0,0.088
890.5,0.088
890.0,0.088
889.5,0.087
889.0,0.087
888.5,0.087
888.0,0.087
887.5,0.088
887.0,0.088
886.5,0.089
886.0,0.089
885.5,0.089
885.0,0.090
884.5,0.090
884.0,0.090
883.5,0.090
883.0,0.091
882.5,0.091
882.0,0.091
881.5,0.091
881.0,0.091
880.5,0.092
880.0,0.092
879.5,0.092
879.0,0.092
878.5,0.092
878.0,0.092
877.5,0.092
877.0,0.092
876.5,0.092
876.0,0.092
875.5,0.092
875.0,0.092
874.5,0.092
874.0,0.091
873.5,0.091
873.0,0.091
872.5,0.090
872.0,0.090
871.5,0.089
871.0,0.089
870.5,0.089
870.0,0.088
869.5,0.088
869.0,0.087
868.5,0.087
868.0,0.087
867.5,0.087
867.0,0.086
866.5,0.086
866.0,0.086
865.5,0.085
865.0,0.085
864.5,0.085
864.0,0.085
863.5,0.084
863.0,0.084
862.5,0.084
862.0,0.084
861.5,0.084
861.0,0.084
860.5,0.084
860.0,0.083
859.5,0.083
859.0,0.083
858.5,0.083
858.0,0.083
857.5,0.083
857.0,0.083
856.5,0.083
856.0,0.082
855.5,0.082
855.0,0.082
854.5,0.082
854.0,0.082
853.5,0.082
853.0,0.082
852.5,0.082
852.0,0.082
851.5,0.082
851.0,0.082
850.5,0.082
850.0,0.082
849.5,0.082
849.0,0.082
848.5,0.082
848.0,0.081
847.5,0.081
847.0,0.081
846.5,0.081
846.0,0.081
845.5,0.081
845.0,0.081
844.5,0.081
844.0,0.081
843.5,0.081
843.0,0.081
842.5,0.081
842.0,0.080
841.5,0.080
841.0,0.080
840.5,0.080
840.0,0.080
839.5,0.080
839.0,0.080
838.5,0.080
838.0,0.080
837.5,0.080
837.0,0.080
836.5,0.080
836.0,0.080
835.5,0.079
835.0,0.079
834.5,0.079
834.0,0.079
833.5,0.079
833.0,0.079
832.5,0.079
832.0,0.079
831.5,0.079
831.0,0.078
830.5,0.078
830.0,0.078
829.5,0.077
829.0,0.077
828.5,0.077
828.0,0.077
827.5,0.076
827.0,0.076
826.5,0.076
826.0,0.076
825.5,0.075
825.0,0.075
824.5,0.075
824.0,0.075
823.5,0.075
823.0,0.075
822.5,0.075
822.0,0.074
821.5,0.074
821.0,0.074
820.5,0.074
820.0,0.074
819.5,0.074
819.0,0.074
818.5,0.074
818.0,0.074
817.5,0.074
817.0,0.074
816.5,0.074
816.0,0.074
815.5,0.074
815.0,0.073
814.5,0.073
814.0,0.073
813.5,0.074
813.0,0.074
812.5,0.074
812.0,0.073
811.5,0.073
811.0,0.073
810.5,0.073
810.0,0.073
809.5,0.073
809.0,0.073
808.5,0.074
808.0,0.074
807.5,0.074
807.0,0.074
806.5,0.074
806.0,0.074
805.5,0.074
805.0,0.074
804.5,0.074
804.0,0.074
803.5,0.074
803.0,0.074
802.5,0.074
802.0,0.074
801.5,0.074
801.0,0.074
800.5,0.074
800.0,0.074
799.5,0.074
799.0,0.074
798.5,0.074
798.0,0.074
797.5,0.074
797.0,0.075
796.5,0.075
796.0,0.075
795.5,0.075
795.0,0.075
794.5,0.075
794.0,0.075
793.5,0.075
793.0,0.075
792.5,0.075
792.0,0.075
791.5,0.075
791.0,0.075
790.5,0.075
790.0,0.075
789.5,0.075
789.0,0.075
788.5,0.075
788.0,0.075
787.5,0.075
787.0,0.076
786.5,0.076
786.0,0.076
785.5,0.076
785.0,0.076
784.5,0.076
784.0,0.076
783.5,0.076
783.0,0.076
782.5,0.076
782.0,0.076
781.5,0.076
781.0,0.076
780.5,0.077
780.0,0.077
779.5,0.077
779.0,0.077
778.5,0.077
778.0,0.077
777.5,0.077
777.0,0.077
776.5,0.077
776.0,0.077
775.5,0.077
775.0,0.077
774.5,0.077
774.0,0.077
773.5,0.077
773.0,0.078
772.5,0.078
772.0,0.078
771.5,0.078
771.0,0.078
770.5,0.078
770.0,0.078
769.5,0.078
769.0,0.078
768.5,0.078
768.0,0.078
767.5,0.078
767.0,0.078
766.5,0.078
766.0,0.079
765.5,0.079
765.0,0.078
764.5,0.079
764.0,0.079
763.5,0.079
763.0,0.079
762.5,0.079
762.0,0.079
761.5,0.079
761.0,0.079
760.5,0.079
760.0,0.079
759.5,0.079
759.0,0.079
758.5,0.080
758.0,0.080
757.5,0.080
757.0,0.080
756.5,0.080
756.0,0.080
755.5,0.080
755.0,0.080
754.5,0.080
754.0,0.080
753.5,0.080
753.0,0.080
752.5,0.080
752.0,0.081
751.5,0.081
751.0,0.081
750.5,0.081
750.0,0.081
749.5,0.081
749.0,0.081
748.5,0.082
748.0,0.082
747.5,0.082
747.0,0.082
746.5,0.082
746.0,0.082
745.5,0.082
745.0,0.083
744.5,0.083
744.0,0.083
743.5,0.083
743.0,0.083
742.5,0.083
742.0,0.083
741.5,0.084
741.0,0.084
740.5,0.084
740.0,0.084
739.5,0.085
739.0,0.085
738.5,0.085
738.0,0.085
737.5,0.086
737.0,0.086
736.5,0.086
736.0,0.086
735.5,0.086
735.0,0.086
734.5,0.086
734.0,0.087
733.5,0.087
733.0,0.087
732.5,0.087
732.0,0.087
731.5,0.088
731.0,0.088
730.5,0.088
730.0,0.088
729.5,0.089
729.0,0.089
728.5,0.089
728.0,0.090
727.5,0.090
727.0,0.091
726.5,0.091
726.0,0.092
725.5,0.092
725.0,0.093
724.5,0.093
724.0,0.094
723.5,0.095
723.0,0.095
722.5,0.096
722.0,0.097
721.5,0.098
721.0,0.099
720.5,0.100
720.0,0.101
719.5,0.102
719.0,0.103
718.5,0.104
718.0,0.105
717.5,0.106
717.0,0.107
716.5,0.109
716.0,0.110
715.5,0.111
715.0,0.113
714.5,0.114
714.0,0.116
713.5,0.117
713.0,0.119
712.5,0.121
712.0,0.123
711.5,0.124
711.0,0.126
710.5,0.128
710.0,0.131
709.5,0.133
709.0,0.135
708.5,0.138
708.0,0.140
707.5,0.143
707.0,0.146
706.5,0.149
706.0,0.152
705.5,0.155
705.0,0.158
704.5,0.161
704.0,0.165
703.5,0.168
703.0,0.172
702.5,0.176
702.0,0.180
701.5,0.184
701.0,0.188
700.5,0.192
700.0,0.197
699.5,0.202
699.0,0.207
698.5,0.212
698.0,0.217
697.5,0.223
697.0,0.229
696.5,0.235
696.0,0.241
695.5,0.247
695.0,0.253
694.5,0.260
694.0,0.267
693.5,0.274
693.0,0.282
692.5,0.290
692.0,0.298
691.5,0.306
691.0,0.315
690.5,0.324
690.0,0.333
689.5,0.343
689.0,0.354
688.5,0.364
688.0,0.375
687.5,0.386
687.0,0.397
686.5,0.409
686.0,0.422
685.5,0.435
685.0,0.449
684.5,0.462
684.0,0.476
683.5,0.491
683.0,0.506
682.5,0.521
682.0,0.537
681.5,0.553
681.0,0.570
680.5,0.588
680.0,0.606
679.5,0.625
679.0,0.644
678.5,0.664
678.0,0.684
677.5,0.705
677.0,0.726
676.5,0.748
676.0,0.770
675.5,0.792
675.0,0.815
674.5,0.839
674.0,0.863
673.5,0.888
673.0,0.915
672.5,0.942
672.0,0.970
671.5,0.999
671.0,1.030
670.5,1.061
670.0,1.092
669.5,1.124
669.0,1.157
668.5,1.191
668.0,1.225
667.5,1.260
667.0,1.295
666.5,1.331
666.0,1.367
665.5,1.404
665.0,1.442
664.5,1.480
664.0,1.519
663.5,1.556
663.0,1.593
662.5,1.631
662.0,1.670
661.5,1.710
661.0,1.750
660.5,1.789
660.0,1.828
659.5,1.867
659.0,1.906
658.5,1.945
658.0,1.983
657.5,2.020
657.0,2.055
656.5,2.087
656.0,2.118
655.5,2.148
655.0,2.175
654.5,2.202
654.0,2.227
653.5,2.251
653.0,2.272
652.5,2.292
652.0,2.310
651.5,2.327
651.0,2.342
650.5,2.340
650.0,2.327
649.5,2.314
649.0,2.322
648.5,2.329
648.0,2.335
647.5,2.339
647.0,2.342
646.5,2.343
646.0,2.345
645.5,2.344
645.0,2.342
644.5,2.340
644.0,2.337
643.5,2.333
643.0,2.329
642.5,2.324
642.0,2.319
641.5,2.313
641.0,2.308
640.5,2.302
640.0,2.297
639.5,2.292
639.0,2.288
638.5,2.284
638.0,2.281
637.5,2.279
637.0,2.277
636.5,2.277
636.0,2.277
635.5,2.278
635.0,2.280
634.5,2.282
634.0,2.284
633.5,2.286
633.0,2.289
632.5,2.291
632.0,2.294
631.5,2.296
631.0,2.298
630.5,2.300
630.0,2.301
629.5,2.303
629.0,2.303
628.5,2.304
628.0,2.304
627.5,2.304
627.0,2.304
626.5,2.304
626.0,2.303
625.5,2.303
625.0,2.303
624.5,2.302
624.0,2.302
623.5,2.301
623.0,2.300
622.5,2.300
622.0,2.299
621.5,2.298
621.0,2.297
620.5,2.297
620.0,2.296
619.5,2.295
619.0,2.294
618.5,2.294
618.0,2.293
617.5,2.292
617.0,2.291
616.5,2.290
616.0,2.289
615.5,2.289
615.0,2.288
614.5,2.287
614.0,2.286
613.5,2.285
613.0,2.284
612.5,2.283
612.0,2.282
611.5,2.280
611.0,2.280
610.5,2.279
610.0,2.277
609.5,2.276
609.0,2.275
608.5,2.274
608.0,2.273
607.5,2.272
607.0,2.271
606.5,2.270
606.0,2.269
605.5,2.268
605.0,2.266
604.5,2.265
604.0,2.264
603.5,2.263
603.0,2.262
602.5,2.261
602.0,2.260
601.5,2.259
601.0,2.257
600.5,2.256
600.0,2.255
599.5,2.253
599.0,2.252
598.5,2.251
598.0,2.250
597.5,2.248
597.0,2.247
596.5,2.246
596.0,2.245
595.5,2.244
595.0,2.242
594.5,2.241
594.0,2.240
593.5,2.238
593.0,2.237
592.5,2.235
592.0,2.234
591.5,2.233
591.0,2.231
590.5,2.230
590.0,2.228
589.5,2.227
589.0,2.226
588.5,2.224
588.0,2.223
587.5,2.222
587.0,2.220
586.5,2.219
586.0,2.217
585.5,2.216
585.0,2.214
584.5,2.213
584.0,2.211
583.5,2.210
583.0,2.209
582.5,2.207
582.0,2.206
581.5,2.204
581.0,2.202
580.5,2.201
580.0,2.200
579.5,2.198
579.0,2.196
578.5,2.194
578.0,2.193
577.5,2.191
577.0,2.190
576.5,2.188
576.0,2.186
575.5,2.184
575.0,2.182
574.5,2.180
574.0,2.179
573.5,2.177
573.0,2.175
572.5,2.173
572.0,2.171
571.5,2.169
571.0,2.167
570.5,2.165
570.0,2.163
569.5,2.161
569.0,2.159
568.5,2.156
568.0,2.154
567.5,2.151
567.0,2.149
566.5,2.147
566.0,2.144
565.5,2.142
565.0,2.140
564.5,2.137
564.0,2.135
563.5,2.132
563.0,2.129
562.5,2.127
562.0,2.124
561.5,2.121
561.0,2.117
560.5,2.114
560.0,2.111
559.5,2.108
559.0,2.105
558.5,2.102
558.0,2.098
557.5,2.095
557.0,2.091
556.5,2.088
556.0,2.084
555.5,2.080
555.0,2.076
554.5,2.072
554.0,2.068
553.5,2.064
553.0,2.059
552.5,2.055
552.0,2.051
551.5,2.046
551.0,2.042
550.5,2.037
550.0,2.032
549.5,2.027
549.0,2.021
548.5,2.016
548.0,2.011
547.5,2.006
547.0,2.000
546.5,1.995
546.0,1.990
545.5,1.984
545.0,1.979
544.5,1.973
544.0,1.967
543.5,1.962
543.0,1.956
542.5,1.950
542.0,1.944
541.5,1.938
541.0,1.932
540.5,1.926
540.0,1.920
539.5,1.914
539.0,1.908
538.5,1.901
538.0,1.895
537.5,1.889
537.0,1.882
536.5,1.949
536.0,2.128
535.5,2.305
535.0,2.316
534.5,2.308
534.0,2.300
533.5,2.292
533.0,2.285
532.5,2.277
532.0,2.270
531.5,2.265
531.0,2.261
530.5,2.255
530.0,2.249
529.5,2.251
529.0,2.272
528.5,2.295
528.0,2.296
527.5,2.292
527.0,2.288
526.5,2.285
526.0,2.282
525.5,2.279
525.0,2.277
524.5,2.274
524.0,2.272
523.5,2.271
523.0,2.270
522.5,2.269
522.0,2.268
521.5,2.268
521.0,2.269
520.5,2.268
520.0,2.269
519.5,2.269
519.0,2.271
518.5,2.273
518.0,2.275
517.5,2.277
517.0,2.279
516.5,2.282
516.0,2.285
515.5,2.287
515.0,2.291
514.5,2.295
514.0,2.299
513.5,2.303
513.0,2.307
512.5,2.313
512.0,2.318
511.5,2.324
511.0,2.330
510.5,2.335
510.0,2.342
509.5,2.348
509.0,2.355
508.5,2.361
508.0,2.368
507.5,2.376
507.0,2.383
506.5,2.390
506.0,2.398
505.5,2.406
505.0,2.415
504.5,2.423
504.0,2.431
503.5,2.439
503.0,2.447
502.5,2.456
502.0,2.464
501.5,2.474
501.0,2.482
500.5,2.492
500.0,2.501
499.5,2.510
499.0,2.518
498.5,2.527
498.0,2.538
497.5,2.548
497.0,2.558
496.5,2.568
496.0,2.576
495.5,2.585
495.0,2.594
494.5,2.604
494.0,2.613
493.5,2.623
493.0,2.635
492.5,2.645
492.0,2.655
491.5,2.663
491.0,2.672
490.5,2.683
490.0,2.691
489.5,2.702
489.0,2.712
488.5,2.722
488.0,2.731
487.5,2.739
487.0,2.750
486.5,2.759
486.0,2.770
485.5,2.780
485.0,2.786
484.5,2.793
484.0,2.799
483.5,2.809
483.0,2.821
482.5,2.827
482.0,2.838
481.5,2.842
481.0,2.850
480.5,2.856
480.0,2.863
479.5,2.869
479.0,2.874
478.5,2.879
478.0,2.883
477.5,2.891
477.0,2.900
476.5,2.905
476.0,2.910
475.5,2.914
475.0,2.916
474.5,2.920
474.0,2.924
473.5,2.925
473.0,2.927
472.5,2.929
472.0,2.936
471.5,2.938
471.0,2.943
470.5,2.946
470.0,2.952
469.5,2.954
469.0,2.950
468.5,2.952
468.0,2.954
467.5,2.959
467.0,2.963
466.5,2.963
466.0,2.959
465.5,2.958
465.0,2.960
464.5,2.959
464.0,2.957
463.5,2.957
463.0,2.950
462.5,2.950
462.0,2.947
461.5,2.943
461.0,2.940
460.5,2.935
460.0,2.930
459.5,2.926
459.0,2.920
458.5,2.918
458.0,2.912
457.5,2.908
457.0,2.906
456.5,2.903
456.0,2.904
455.5,2.904
455.0,2.904
454.5,2.901
454.0,2.903
453.5,2.907
453.0,2.907
452.5,2.910
452.0,2.917
451.5,2.920
451.0,2.926
450.5,2.926
450.0,2.933
449.5,2.938
449.0,2.943
448.5,2.951
448.0,2.953
447.5,2.956
447.0,2.957
446.5,2.965
446.0,2.969
445.5,2.970
445.0,2.977
444.5,2.980
444.0,2.984
443.5,2.991
443.0,2.988
442.5,2.994
442.0,2.994
441.5,2.996
441.0,3.000
440.5,3.000
440.0,3.001
439.5,3.000
439.0,2.999
438.5,2.998
438.0,2.992
437.5,2.990
437.0,2.982
436.5,2.977
436.0,2.969
435.5,2.965
435.0,2.965
434.5,2.960
434.0,2.955
433.5,2.947
433.0,2.940
432.5,2.941
432.0,2.932
431.5,2.926
431.0,2.918
430.5,2.917
430.0,2.911
429.5,2.904
429.0,2.902
428.5,2.895
428.0,2.894
427.5,2.887
427.0,2.882
426.5,2.877
426.0,2.873
425.5,2.867
425.0,2.860
424.5,2.855
424.0,2.850
423.5,2.844
423.0,2.844
422.5,2.836
422.0,2.835
421.5,2.825
421.0,2.824
420.5,2.816
420.0,2.817
419.5,2.809
419.0,2.804
418.5,2.798
418.0,2.792
417.5,2.790
417.0,2.786
416.5,2.885
416.0,3.130
415.5,3.369
415.0,3.427
414.5,3.386
414.0,3.359
413.5,3.368
413.0,3.403
412.5,3.416
412.0,3.385
411.5,3.407
411.0,3.416
410.5,3.406
410.0,3.433
409.5,3.395
409.0,3.380
408.5,3.368
408.0,3.376
407.5,3.377
407.0,3.368
406.5,3.369
406.0,3.354
405.5,3.354
405.0,3.351
404.5,3.388
404.0,3.395
403.5,3.374
403.0,3.391
402.5,3.384
402.0,3.375
401.5,3.343
401.0,3.355
400.5,3.369
400.0,3.351
399.5,3.350
399.0,3.316
398.5,3.297
398.0,3.315
397.5,3.330
397.0,3.354
396.5,3.331
396.0,3.316
395.5,3.281
395.0,3.306
394.5,3.313
394.0,3.300
393.5,3.287
393.0,3.260
392.5,3.236
392.0,3.261
391.5,3.250
391.0,3.233
390.5,3.190
390.0,3.191
389.5,3.235
389.0,3.199
388.5,3.178
388.0,3.113
387.5,3.093
387.0,3.114
386.5,3.112
386.0,3.098
385.5,3.085
385.0,3.058
384.5,3.052
384.0,3.028
383.5,3.031
383.0,3.002
382.5,2.977
382.0,2.945
381.5,2.928
381.0,2.938
380.5,2.949
380.0,2.919
379.5,2.865
379.0,2.845
378.5,2.843
378.0,2.822
377.5,2.843
377.0,2.822
376.5,2.807
376.0,2.783
375.5,2.759
375.0,2.754
374.5,2.735
374.0,2.728
373.5,2.709
373.0,2.673
372.5,2.658
372.0,2.633
371.5,2.635
371.0,2.606
370.5,2.595
370.0,2.571
369.5,2.540
369.0,2.530
368.5,2.518
368.0,2.519
367.5,2.502
367.0,2.476
366.5,2.461
366.0,2.446
365.5,2.448
365.0,2.446
364.5,2.429
364.0,2.415
363.5,2.398
363.0,2.391
362.5,2.382
362.0,2.367
361.5,2.357
361.0,2.344
360.5,2.336
360.0,2.326
359.5,2.313
359.0,2.296
358.5,2.277
358.0,2.273
357.5,2.264
357.0,2.251
356.5,2.239
356.0,2.229
355.5,2.223
355.0,2.210
354.5,2.201
354.0,2.189
353.5,2.183
353.0,2.176
352.5,2.163
352.0,2.158
351.5,2.142
351.0,2.137
350.5,2.127
350.0,2.119
349.5,2.112
349.0,2.097
348.5,2.092
348.0,2.082
347.5,2.074
347.0,2.066
346.5,2.054
346.0,2.058
345.5,2.049
345.0,2.044
344.5,2.037
344.0,2.029
343.5,2.024
343.0,2.017
342.5,2.017
342.0,2.011
341.5,2.010
341.0,2.008
340.5,1.984
340.0,1.975
339.5,1.973
339.0,1.975
338.5,1.973
338.0,1.979
337.5,1.982
337.0,1.988
336.5,1.996
336.0,1.994
335.5,2.003
335.0,2.012
334.5,2.029
334.0,2.033
333.5,2.042
333.0,2.058
332.5,2.072
332.0,2.096
331.5,2.112
331.0,2.126
330.5,2.148
330.0,2.164
329.5,2.190
329.0,2.214
328.5,2.248
328.0,2.272
327.5,2.290
327.0,2.323
326.5,2.350
326.0,2.396
325.5,2.431
325.0,2.461
324.5,2.508
324.0,2.541
323.5,2.564
323.0,2.586
322.5,2.631
322.0,2.668
321.5,2.700
321.0,2.770
320.5,2.805
320.0,2.821
319.5,2.843
319.0,2.906
318.5,2.990
318.0,3.010
317.5,3.069
317.0,3.098
316.5,3.202
316.0,3.284
315.5,3.249
315.0,3.248
314.5,3.162
314.0,3.358
313.5,3.387
313.0,3.414
312.5,3.399
312.0,3.399
311.5,3.463
311.0,3.412
310.5,3.476
310.0,3.481
309.5,3.412
309.0,3.559
308.5,3.550
308.0,3.540
307.5,3.556
307.0,3.454
306.5,3.460
306.0,3.362
305.5,3.267
305.0,3.190
304.5,3.174
304.0,3.169
303.5,3.118
303.0,3.171
302.5,3.165
302.0,3.167
301.5,3.165
301.0,3.118
300.5,3.165
300.0,3.214
299.5,3.240
299.0,3.236
298.5,3.248
298.0,3.280
297.5,3.276
297.0,3.398
296.5,3.493
296.0,3.601
295.5,3.640
295.0,3.585
294.5,3.652
294.0,3.613
293.5,3.731
293.0,3.771
292.5,3.795
292.0,3.842
291.5,3.828
291.0,3.865
290.5,3.785
290.0,3.765
289.5,3.769
289.0,3.802
288.5,3.895
288.0,3.854
287.5,3.850
287.0,3.878
286.5,3.924
286.0,3.916
285.5,3.867
285.0,3.914
284.5,3.921
284.0,3.966
283.5,3.919
283.0,3.781
282.5,3.863
282.0,3.878
281.5,3.952
281.0,3.849
280.5,3.816
280.0,3.886
279.5,3.923
279.0,3.908
278.5,3.882
278.0,3.919
277.5,3.918
277.0,3.938
276.5,3.951
276.0,3.898
275.5,3.931
275.0,3.843
274.5,3.829
274.0,3.882
273.5,3.925
273.0,3.893
272.5,3.875
272.0,3.941
271.5,3.876
271.0,3.908
270.5,3.837
270.0,3.847
269.5,3.868
269.0,3.898
268.5,3.984
268.0,3.893
267.5,3.855
267.0,3.892
266.5,3.923
266.0,3.949
265.5,3.950
265.0,3.951
264.5,3.964
264.0,3.955
263.5,3.915
263.0,3.856
262.5,3.853
262.0,3.891
261.5,3.955
261.0,3.933
260.5,3.866
260.0,3.842
259.5,3.883
259.0,4.000
258.5,3.962
258.0,3.930
257.5,3.907
257.0,3.855
256.5,3.923
256.0,3.940
255.5,3.996
255.0,3.951
254.5,3.931
254.0,3.972
253.5,3.934
253.0,3.958
252.5,3.927
252.0,3.945
251.5,3.951
251.0,3.955
250.5,3.987
250.0,3.958
249.5,3.963
249.0,3.961
248.5,3.979
248.0,3.975
247.5,3.986
247.0,3.995
246.5,4.000
246.0,3.974
245.5,3.974
245.0,3.983
244.5,3.980
244.0,3.965
243.5,3.985
243.0,3.995
242.5,4.000
242.0,4.000
241.5,4.000
241.0,4.000
240.5,3.998
240.0,3.998
239.5,3.989
239.0,3.987
238.5,3.983
238.0,3.994
237.5,3.977
237.0,3.958
236.5,3.948
236.0,3.971
235.5,4.000
235.0,3.968
234.5,3.968
234.0,3.973
233.5,3.980
233.0,3.986
232.5,3.965
232.0,3.973
231.5,3.950
231.0,3.971
230.5,4.000
230.0,4.000
229.5,3.972
229.0,3.945
228.5,3.973
228.0,3.971
227.5,3.996
227.0,3.975
226.5,3.973
226.0,3.976
225.5,3.992
225.0,3.999
224.5,3.986
224.0,3.988
223.5,3.971
223.0,3.975
222.5,4.000
222.0,4.000
221.5,3.998
221.0,3.964
220.5,3.933
220.0,3.950
219.5,3.967
219.0,4.000
218.5,3.984
218.0,3.984
217.5,3.984
217.0,4.000
216.5,3.982
216.0,3.969
215.5,3.978
215.0,3.987
214.5,3.994
214.0,3.994
213.5,4.000
213.0,4.000
212.5,4.000
212.0,3.995
211.5,3.987
211.0,3.983
210.5,3.955
210.0,3.972
209.5,4.000
209.0,4.000
208.5,3.992
208.0,3.946
207.5,3.951
207.0,3.940
206.5,3.975
206.0,3.910
205.5,3.906
205.0,3.949
204.5,3.962
204.0,4.000
203.5,4.000
203.0,4.000
202.5,3.963
202.0,3.963
201.5,3.953
201.0,3.944
200.5,3.948
200.0,3.991
