"PHT05S31.SPC"
WL/nm,Abs
900.0,0.111
899.5,0.111
899.0,0.111
898.5,0.111
898.0,0.111
897.5,0.111
897.0,0.111
896.5,0.111
896.0,0.111
895.5,0.111
895.0,0.111
894.5,0.111
894.0,0.111
893.5,0.111
893.0,0.111
892.5,0.110
892.0,0.110
891.5,0.110
891.0,0.110
890.5,0.109
890.0,0.109
889.5,0.109
889.0,0.109
888.5,0.109
888.0,0.109
887.5,0.109
887.0,0.109
886.5,0.110
886.0,0.110
885.5,0.111
885.0,0.111
884.5,0.112
884.0,0.112
883.5,0.112
883.0,0.112
882.5,0.113
882.0,0.113
881.5,0.113
881.0,0.113
880.5,0.114
880.0,0.114
879.5,0.114
879.0,0.114
878.5,0.114
878.0,0.115
877.5,0.115
877.0,0.114
876.5,0.114
876.0,0.114
875.5,0.114
875.0,0.114
874.5,0.114
874.0,0.114
873.5,0.114
873.0,0.113
872.5,0.113
872.0,0.113
871.5,0.112
871.0,0.112
870.5,0.111
870.0,0.111
869.5,0.111
869.0,0.110
868.5,0.110
868.0,0.110
867.5,0.109
867.0,0.109
866.5,0.109
866.0,0.109
865.5,0.108
865.0,0.108
864.5,0.108
864.0,0.108
863.5,0.108
863.0,0.108
862.5,0.107
862.0,0.107
861.5,0.107
861.0,0.107
860.5,0.107
860.0,0.107
859.5,0.107
859.0,0.107
858.5,0.107
858.0,0.107
857.5,0.107
857.0,0.106
856.5,0.106
856.0,0.106
855.5,0.106
855.0,0.106
854.5,0.106
854.0,0.106
853.5,0.106
853.0,0.106
852.5,0.106
852.0,0.106
851.5,0.106
851.0,0.106
850.5,0.106
850.0,0.106
849.5,0.106
849.0,0.106
848.5,0.106
848.0,0.106
847.5,0.106
847.0,0.106
846.5,0.106
846.0,0.106
845.5,0.106
845.0,0.106
844.5,0.106
844.0,0.106
843.5,0.106
843.0,0.106
842.5,0.106
842.0,0.106
841.5,0.106
841.0,0.106
840.5,0.106
840.0,0.106
839.5,0.106
839.0,0.106
838.5,0.106
838.0,0.106
837.5,0.106
837.0,0.105
836.5,0.105
836.0,0.105
835.5,0.105
835.0,0.105
834.5,0.105
834.0,0.105
833.5,0.105
833.0,0.105
832.5,0.105
832.0,0.105
831.5,0.105
831.0,0.105
830.5,0.104
830.0,0.104
829.5,0.104
829.0,0.104
828.5,0.104
828.0,0.103
827.5,0.103
827.0,0.103
826.5,0.103
826.0,0.103
825.5,0.102
825.0,0.102
824.5,0.102
824.0,0.102
823.5,0.102
823.0,0.102
822.5,0.102
822.0,0.102
821.5,0.102
821.0,0.102
820.5,0.102
820.0,0.102
819.5,0.102
819.0,0.102
818.5,0.102
818.0,0.102
817.5,0.102
817.0,0.102
816.5,0.102
816.0,0.102
815.5,0.102
815.0,0.102
814.5,0.102
814.0,0.102
813.5,0.102
813.0,0.102
812.5,0.102
812.0,0.102
811.5,0.102
811.0,0.102
810.5,0.103
810.0,0.103
809.5,0.103
809.0,0.103
808.5,0.103
808.0,0.103
807.5,0.103
807.0,0.103
806.5,0.103
806.0,0.103
805.5,0.103
805.0,0.103
804.5,0.103
804.0,0.104
803.5,0.104
803.0,0.104
802.5,0.104
802.0,0.104
801.5,0.104
801.0,0.104
800.5,0.104
800.0,0.104
799.5,0.105
799.0,0.105
798.5,0.105
798.0,0.105
797.5,0.105
797.0,0.105
796.5,0.105
796.0,0.105
795.5,0.106
795.0,0.106
794.5,0.106
794.0,0.106
793.5,0.106
793.0,0.106
792.5,0.106
792.0,0.106
791.5,0.107
791.0,0.107
790.5,0.107
790.0,0.107
789.5,0.107
789.0,0.107
788.5,0.107
788.0,0.107
787.5,0.108
787.0,0.108
786.5,0.108
786.0,0.108
785.5,0.108
785.0,0.108
784.5,0.108
784.0,0.109
783.5,0.109
783.0,0.109
782.5,0.109
782.0,0.109
781.5,0.109
781.0,0.110
780.5,0.110
780.0,0.110
779.5,0.110
779.0,0.110
778.5,0.110
778.0,0.110
777.5,0.111
777.0,0.111
776.5,0.111
776.0,0.111
775.5,0.111
775.0,0.111
774.5,0.111
774.0,0.112
773.5,0.112
773.0,0.112
772.5,0.112
772.0,0.112
771.5,0.112
771.0,0.112
770.5,0.112
770.0,0.112
769.5,0.113
769.0,0.113
768.5,0.113
768.0,0.113
767.5,0.113
767.0,0.114
766.5,0.114
766.0,0.114
765.5,0.114
765.0,0.114
764.5,0.114
764.0,0.114
763.5,0.114
763.0,0.115
762.5,0.115
762.0,0.115
761.5,0.115
761.0,0.115
760.5,0.115
760.0,0.115
759.5,0.116
759.0,0.116
758.5,0.116
758.0,0.116
757.5,0.116
757.0,0.116
756.5,0.116
756.0,0.117
755.5,0.117
755.0,0.117
754.5,0.117
754.0,0.117
753.5,0.117
753.0,0.118
752.5,0.118
752.0,0.118
751.5,0.118
751.0,0.118
750.5,0.119
750.0,0.119
749.5,0.119
749.0,0.119
748.5,0.119
748.0,0.119
747.5,0.119
747.0,0.120
746.5,0.120
746.0,0.120
745.5,0.120
745.0,0.120
744.5,0.121
744.0,0.121
743.5,0.121
743.0,0.121
742.5,0.122
742.0,0.122
741.5,0.122
741.0,0.122
740.5,0.122
740.0,0.123
739.5,0.123
739.0,0.123
738.5,0.123
738.0,0.123
737.5,0.123
737.0,0.124
736.5,0.124
736.0,0.124
735.5,0.124
735.0,0.124
734.5,0.125
734.0,0.125
733.5,0.125
733.0,0.125
732.5,0.125
732.0,0.125
731.5,0.125
731.0,0.126
730.5,0.126
730.0,0.126
729.5,0.126
729.0,0.127
728.5,0.127
728.0,0.127
727.5,0.127
727.0,0.128
726.5,0.128
726.0,0.128
725.5,0.129
725.0,0.129
724.5,0.130
724.0,0.130
723.5,0.131
723.0,0.131
722.5,0.132
722.0,0.132
721.5,0.133
721.0,0.133
720.5,0.134
720.0,0.135
719.5,0.135
719.0,0.136
718.5,0.137
718.0,0.138
717.5,0.139
717.0,0.139
716.5,0.140
716.0,0.141
715.5,0.142
715.0,0.143
714.5,0.144
714.0,0.145
713.5,0.146
713.0,0.147
712.5,0.148
712.0,0.149
711.5,0.150
711.0,0.151
710.5,0.153
710.0,0.154
709.5,0.155
709.0,0.157
708.5,0.158
708.0,0.160
707.5,0.162
707.0,0.163
706.5,0.165
706.0,0.167
705.5,0.169
705.0,0.170
704.5,0.172
704.0,0.175
703.5,0.177
703.0,0.179
702.5,0.181
702.0,0.183
701.5,0.186
701.0,0.188
700.5,0.191
700.0,0.193
699.5,0.196
699.0,0.199
698.5,0.202
698.0,0.205
697.5,0.208
697.0,0.212
696.5,0.215
696.0,0.218
695.5,0.222
695.0,0.226
694.5,0.229
694.0,0.233
693.5,0.237
693.0,0.242
692.5,0.246
692.0,0.250
691.5,0.255
691.0,0.260
690.5,0.265
690.0,0.270
689.5,0.276
689.0,0.281
688.5,0.287
688.0,0.293
687.5,0.299
687.0,0.305
686.5,0.312
686.0,0.319
685.5,0.326
685.0,0.333
684.5,0.340
684.0,0.348
683.5,0.356
683.0,0.364
682.5,0.372
682.0,0.381
681.5,0.389
681.0,0.398
680.5,0.408
680.0,0.418
679.5,0.428
679.0,0.438
678.5,0.449
678.0,0.460
677.5,0.471
677.0,0.482
676.5,0.493
676.0,0.505
675.5,0.517
675.0,0.529
674.5,0.542
674.0,0.555
673.5,0.568
673.0,0.582
672.5,0.597
672.0,0.612
671.5,0.627
671.0,0.644
670.5,0.660
670.0,0.677
669.5,0.694
669.0,0.712
668.5,0.730
668.0,0.748
667.5,0.767
667.0,0.786
666.5,0.806
666.0,0.826
665.5,0.847
665.0,0.868
664.5,0.889
664.0,0.911
663.5,0.933
663.0,0.954
662.5,0.976
662.0,0.999
661.5,1.023
661.0,1.048
660.5,1.072
660.0,1.097
659.5,1.123
659.0,1.149
658.5,1.176
658.0,1.204
657.5,1.231
657.0,1.258
656.5,1.285
656.0,1.313
655.5,1.340
655.0,1.368
654.5,1.396
654.0,1.425
653.5,1.454
653.0,1.483
652.5,1.513
652.0,1.543
651.5,1.573
651.0,1.604
650.5,1.619
650.0,1.624
649.5,1.631
649.0,1.660
648.5,1.689
648.0,1.717
647.5,1.744
647.0,1.771
646.5,1.796
646.0,1.821
645.5,1.846
645.0,1.870
644.5,1.893
644.0,1.915
643.5,1.935
643.0,1.955
642.5,1.973
642.0,1.991
641.5,2.007
641.0,2.023
640.5,2.037
640.0,2.050
639.5,2.063
639.0,2.076
638.5,2.087
638.0,2.098
637.5,2.109
637.0,2.120
636.5,2.130
636.0,2.141
635.5,2.150
635.0,2.160
634.5,2.169
634.0,2.178
633.5,2.187
633.0,2.195
632.5,2.203
632.0,2.211
631.5,2.219
631.0,2.225
630.5,2.231
630.0,2.237
629.5,2.242
629.0,2.246
628.5,2.250
628.0,2.253
627.5,2.256
627.0,2.259
626.5,2.261
626.0,2.263
625.5,2.265
625.0,2.266
624.5,2.268
624.0,2.269
623.5,2.269
623.0,2.270
622.5,2.270
622.0,2.271
621.5,2.272
621.0,2.272
620.5,2.272
620.0,2.272
619.5,2.272
619.0,2.272
618.5,2.271
618.0,2.271
617.5,2.270
617.0,2.270
616.5,2.269
616.0,2.268
615.5,2.267
615.0,2.266
614.5,2.265
614.0,2.264
613.5,2.263
613.0,2.261
612.5,2.260
612.0,2.258
611.5,2.257
611.0,2.255
610.5,2.253
610.0,2.252
609.5,2.250
609.0,2.248
608.5,2.246
608.0,2.243
607.5,2.241
607.0,2.239
606.5,2.237
606.0,2.234
605.5,2.231
605.0,2.229
604.5,2.226
604.0,2.223
603.5,2.220
603.0,2.217
602.5,2.214
602.0,2.211
601.5,2.207
601.0,2.204
600.5,2.200
600.0,2.196
599.5,2.193
599.0,2.189
598.5,2.185
598.0,2.181
597.5,2.176
597.0,2.172
596.5,2.167
596.0,2.163
595.5,2.158
595.0,2.153
594.5,2.148
594.0,2.143
593.5,2.138
593.0,2.134
592.5,2.128
592.0,2.123
591.5,2.117
591.0,2.112
590.5,2.106
590.0,2.100
589.5,2.095
589.0,2.089
588.5,2.083
588.0,2.077
587.5,2.070
587.0,2.064
586.5,2.058
586.0,2.052
585.5,2.045
585.0,2.039
584.5,2.032
584.0,2.025
583.5,2.018
583.0,2.012
582.5,2.005
582.0,1.997
581.5,1.990
581.0,1.983
580.5,1.976
580.0,1.969
579.5,1.961
579.0,1.954
578.5,1.947
578.0,1.940
577.5,1.932
577.0,1.924
576.5,1.917
576.0,1.910
575.5,1.903
575.0,1.895
574.5,1.886
574.0,1.878
573.5,1.871
573.0,1.863
572.5,1.855
572.0,1.848
571.5,1.840
571.0,1.833
570.5,1.825
570.0,1.818
569.5,1.810
569.0,1.802
568.5,1.793
568.0,1.784
567.5,1.776
567.0,1.769
566.5,1.762
566.0,1.754
565.5,1.747
565.0,1.740
564.5,1.732
564.0,1.725
563.5,1.719
563.0,1.712
562.5,1.704
562.0,1.697
561.5,1.689
561.0,1.682
560.5,1.675
560.0,1.668
559.5,1.662
559.0,1.655
558.5,1.649
558.0,1.643
557.5,1.637
557.0,1.631
556.5,1.625
556.0,1.619
555.5,1.613
555.0,1.607
554.5,1.602
554.0,1.597
553.5,1.592
553.0,1.587
552.5,1.582
552.0,1.577
551.5,1.573
551.0,1.568
550.5,1.564
550.0,1.560
549.5,1.556
549.0,1.552
548.5,1.548
548.0,1.545
547.5,1.542
547.0,1.539
546.5,1.536
546.0,1.534
545.5,1.532
545.0,1.530
544.5,1.528
544.0,1.526
543.5,1.524
543.0,1.523
542.5,1.522
542.0,1.521
541.5,1.520
541.0,1.519
540.5,1.519
540.0,1.518
539.5,1.518
539.0,1.518
538.5,1.518
538.0,1.518
537.5,1.519
537.0,1.520
536.5,1.543
536.0,1.602
535.5,1.662
535.0,1.671
534.5,1.675
534.0,1.679
533.5,1.684
533.0,1.689
532.5,1.694
532.0,1.699
531.5,1.705
531.0,1.710
530.5,1.716
530.0,1.722
529.5,1.737
529.0,1.771
528.5,1.805
528.0,1.819
527.5,1.826
527.0,1.835
526.5,1.844
526.0,1.852
525.5,1.861
525.0,1.870
524.5,1.880
524.0,1.889
523.5,1.899
523.0,1.910
522.5,1.920
522.0,1.931
521.5,1.943
521.0,1.954
520.5,1.966
520.0,1.978
519.5,1.990
519.0,2.002
518.5,2.015
518.0,2.028
517.5,2.041
517.0,2.054
516.5,2.067
516.0,2.080
515.5,2.095
515.0,2.110
514.5,2.125
514.0,2.138
513.5,2.152
513.0,2.168
512.5,2.183
512.0,2.198
511.5,2.214
511.0,2.230
510.5,2.246
510.0,2.262
509.5,2.278
509.0,2.295
508.5,2.311
508.0,2.327
507.5,2.344
507.0,2.361
506.5,2.379
506.0,2.395
505.5,2.412
505.0,2.429
504.5,2.445
504.0,2.460
503.5,2.476
503.0,2.493
502.5,2.509
502.0,2.527
501.5,2.545
501.0,2.560
500.5,2.576
500.0,2.591
499.5,2.605
499.0,2.622
498.5,2.636
498.0,2.653
497.5,2.669
497.0,2.684
496.5,2.697
496.0,2.710
495.5,2.723
495.0,2.736
494.5,2.750
494.0,2.765
493.5,2.779
493.0,2.795
492.5,2.805
492.0,2.817
491.5,2.828
491.0,2.840
490.5,2.853
490.0,2.864
489.5,2.875
489.0,2.887
488.5,2.895
488.0,2.906
487.5,2.917
487.0,2.929
486.5,2.939
486.0,2.946
485.5,2.956
485.0,2.960
484.5,2.965
484.0,2.968
483.5,2.972
483.0,2.984
482.5,2.988
482.0,2.996
481.5,3.003
481.0,3.005
480.5,3.011
480.0,3.016
479.5,3.018
479.0,3.021
478.5,3.023
478.0,3.029
477.5,3.027
477.0,3.029
476.5,3.037
476.0,3.037
475.5,3.034
475.0,3.034
474.5,3.034
474.0,3.039
473.5,3.042
473.0,3.047
472.5,3.047
472.0,3.038
471.5,3.040
471.0,3.039
470.5,3.035
470.0,3.037
469.5,3.036
469.0,3.038
468.5,3.038
468.0,3.035
467.5,3.038
467.0,3.037
466.5,3.038
466.0,3.037
465.5,3.032
465.0,3.030
464.5,3.024
464.0,3.024
463.5,3.015
463.0,3.008
462.5,3.003
462.0,2.996
461.5,2.996
461.0,2.993
460.5,2.987
460.0,2.985
459.5,2.976
459.0,2.968
458.5,2.961
458.0,2.950
457.5,2.947
457.0,2.942
456.5,2.939
456.0,2.939
455.5,2.935
455.0,2.934
454.5,2.931
454.0,2.933
453.5,2.939
453.0,2.942
452.5,2.946
452.0,2.943
451.5,2.946
451.0,2.953
450.5,2.955
450.0,2.965
449.5,2.968
449.0,2.972
448.5,2.977
448.0,2.977
447.5,2.980
447.0,2.986
446.5,2.993
446.0,3.002
445.5,3.004
445.0,3.011
444.5,3.017
444.0,3.019
443.5,3.025
443.0,3.024
442.5,3.030
442.0,3.030
441.5,3.026
441.0,3.026
440.5,3.026
440.0,3.030
439.5,3.025
439.0,3.021
438.5,3.020
438.0,3.019
437.5,3.012
437.0,3.009
436.5,3.002
436.0,2.997
435.5,2.985
435.0,2.984
434.5,2.982
434.0,2.976
433.5,2.972
433.0,2.956
432.5,2.956
432.0,2.953
431.5,2.951
431.0,2.946
430.5,2.936
430.0,2.934
429.5,2.926
429.0,2.921
428.5,2.914
428.0,2.903
427.5,2.899
427.0,2.892
426.5,2.889
426.0,2.889
425.5,2.883
425.0,2.879
424.5,2.871
424.0,2.868
423.5,2.866
423.0,2.858
422.5,2.849
422.0,2.845
421.5,2.842
421.0,2.837
420.5,2.827
420.0,2.823
419.5,2.816
419.0,2.817
418.5,2.813
418.0,2.810
417.5,2.803
417.0,2.795
416.5,2.906
416.0,3.141
415.5,3.377
415.0,3.411
414.5,3.399
414.0,3.406
413.5,3.418
413.0,3.435
412.5,3.439
412.0,3.430
411.5,3.447
411.0,3.429
410.5,3.410
410.0,3.399
409.5,3.388
409.0,3.397
408.5,3.403
408.0,3.391
407.5,3.389
407.0,3.432
406.5,3.410
406.0,3.375
405.5,3.419
405.0,3.429
404.5,3.426
404.0,3.408
403.5,3.430
403.0,3.454
402.5,3.412
402.0,3.444
401.5,3.411
401.0,3.374
400.5,3.363
400.0,3.384
399.5,3.407
399.0,3.406
398.5,3.407
398.0,3.420
397.5,3.457
397.0,3.474
396.5,3.420
396.0,3.383
395.5,3.372
395.0,3.380
394.5,3.393
394.0,3.379
393.5,3.378
393.0,3.395
392.5,3.382
392.0,3.369
391.5,3.381
391.0,3.330
390.5,3.383
390.0,3.353
389.5,3.381
389.0,3.390
388.5,3.433
388.0,3.415
387.5,3.369
387.0,3.329
386.5,3.356
386.0,3.358
385.5,3.385
385.0,3.346
384.5,3.364
384.0,3.379
383.5,3.389
383.0,3.375
382.5,3.318
382.0,3.317
381.5,3.355
381.0,3.350
380.5,3.353
380.0,3.308
379.5,3.372
379.0,3.332
378.5,3.357
378.0,3.379
377.5,3.374
377.0,3.425
376.5,3.322
376.0,3.333
375.5,3.333
375.0,3.267
374.5,3.376
374.0,3.402
373.5,3.432
373.0,3.460
372.5,3.515
372.0,3.472
371.5,3.314
371.0,3.258
370.5,3.241
370.0,3.199
369.5,3.269
369.0,3.286
368.5,3.387
368.0,3.316
367.5,3.234
367.0,3.257
366.5,3.203
366.0,3.239
365.5,3.345
365.0,3.366
364.5,3.380
364.0,3.451
363.5,3.452
363.0,3.608
362.5,3.520
362.0,3.513
361.5,3.549
361.0,3.522
360.5,3.679
360.0,3.585
359.5,3.560
359.0,3.497
358.5,3.537
358.0,3.648
357.5,3.590
357.0,3.625
356.5,3.609
356.0,3.625
355.5,3.675
355.0,3.611
354.5,3.646
354.0,3.619
353.5,3.596
353.0,3.653
352.5,3.643
352.0,3.659
351.5,3.645
351.0,3.683
350.5,3.700
350.0,3.564
349.5,3.653
349.0,3.671
348.5,3.751
348.0,3.750
347.5,3.671
347.0,3.765
346.5,3.643
346.0,3.684
345.5,3.619
345.0,3.464
344.5,3.616
344.0,3.618
343.5,3.758
343.0,3.794
342.5,3.727
342.0,3.767
341.5,3.661
341.0,3.694
340.5,3.708
340.0,3.671
339.5,3.723
339.0,3.693
338.5,3.741
338.0,3.734
337.5,3.735
337.0,3.771
336.5,3.812
336.0,3.672
335.5,3.817
335.0,3.887
334.5,3.983
334.0,3.865
333.5,3.758
333.0,3.842
332.5,3.912
332.0,3.904
331.5,3.817
331.0,3.764
330.5,3.861
330.0,3.832
329.5,3.916
329.0,3.778
328.5,3.744
328.0,3.832
327.5,3.889
327.0,3.911
326.5,3.781
326.0,3.793
325.5,3.808
325.0,3.887
324.5,3.889
324.0,3.853
323.5,3.827
323.0,3.875
322.5,3.785
322.0,3.818
321.5,3.872
321.0,3.850
320.5,3.794
320.0,3.910
319.5,3.923
319.0,3.888
318.5,3.865
318.0,3.787
317.5,3.817
317.0,3.813
316.5,3.790
316.0,3.809
315.5,3.702
315.0,3.706
314.5,3.822
314.0,3.895
313.5,3.936
313.0,3.779
312.5,3.790
312.0,3.759
311.5,3.787
311.0,3.903
310.5,3.813
310.0,3.731
309.5,3.764
309.0,3.797
308.5,3.917
308.0,3.949
307.5,3.885
307.0,3.798
306.5,3.791
306.0,3.766
305.5,3.732
305.0,3.663
304.5,3.802
304.0,3.781
303.5,3.848
303.0,3.814
302.5,3.759
302.0,3.679
301.5,3.611
301.0,3.716
300.5,3.777
300.0,3.879
299.5,3.910
299.0,3.876
298.5,3.908
298.0,3.856
297.5,3.852
297.0,3.891
296.5,3.874
296.0,3.805
295.5,3.724
295.0,3.756
294.5,3.863
294.0,3.767
293.5,3.851
293.0,3.796
292.5,3.783
292.0,3.790
291.5,3.742
291.0,3.855
290.5,3.749
290.0,3.777
289.5,3.763
289.0,3.833
288.5,3.824
288.0,3.804
287.5,3.766
287.0,3.822
286.5,3.857
286.0,3.890
285.5,3.931
285.0,3.904
284.5,3.831
284.0,3.859
283.5,3.882
283.0,3.858
282.5,3.907
282.0,3.810
281.5,3.771
281.0,3.773
280.5,3.760
280.0,3.850
279.5,3.807
279.0,3.796
278.5,3.746
278.0,3.755
277.5,3.865
277.0,3.886
276.5,3.849
276.0,3.825
275.5,3.742
275.0,3.795
274.5,3.750
274.0,3.752
273.5,3.707
273.0,3.765
272.5,3.782
272.0,3.832
271.5,3.864
271.0,3.813
270.5,3.886
270.0,3.923
269.5,3.950
269.0,3.868
268.5,3.893
268.0,3.929
267.5,3.912
267.0,3.867
266.5,3.860
266.0,3.866
265.5,3.874
265.0,3.863
264.5,3.928
264.0,3.924
263.5,3.916
263.0,3.867
262.5,3.860
262.0,3.918
261.5,3.922
261.0,3.898
260.5,3.922
260.0,3.935
259.5,3.927
259.0,3.897
258.5,3.954
258.0,3.934
257.5,3.867
257.0,3.899
256.5,3.921
256.0,4.000
255.5,3.948
255.0,3.916
254.5,3.902
254.0,3.901
253.5,3.923
253.0,3.982
252.5,3.982
252.0,3.980
251.5,3.920
251.0,3.905
250.5,3.900
250.0,3.911
249.5,3.923
249.0,3.879
248.5,3.865
248.0,3.882
247.5,3.983
247.0,3.996
246.5,3.995
246.0,3.987
245.5,3.962
245.0,3.958
244.5,3.933
244.0,3.960
243.5,3.950
243.0,3.974
242.5,3.991
242.0,3.968
241.5,3.954
241.0,3.938
240.5,3.979
240.0,3.992
239.5,3.976
239.0,3.973
238.5,3.961
238.0,3.961
237.5,3.951
237.0,3.968
236.5,3.987
236.0,3.987
235.5,3.993
235.0,4.000
234.5,3.986
234.0,3.974
233.5,3.974
233.0,3.975
232.5,3.932
232.0,3.954
231.5,3.979
231.0,3.990
230.5,3.997
230.0,3.981
229.5,3.981
229.0,3.963
228.5,3.971
228.0,3.983
227.5,3.981
227.0,3.966
226.5,3.965
226.0,3.992
225.5,3.991
225.0,3.999
224.5,3.997
224.0,3.946
223.5,3.947
223.0,3.955
222.5,3.957
222.0,3.923
221.5,3.949
221.0,3.961
220.5,3.943
220.0,3.938
219.5,3.935
219.0,3.952
218.5,3.961
218.0,3.948
217.5,3.957
217.0,3.957
216.5,4.000
216.0,3.960
215.5,3.955
215.0,3.971
214.5,3.978
214.0,3.984
213.5,3.989
213.0,3.989
212.5,3.944
212.0,3.943
211.5,3.983
211.0,3.992
210.5,3.985
210.0,3.949
209.5,3.944
209.0,3.950
208.5,3.961
208.0,3.974
207.5,3.952
207.0,3.948
206.5,3.959
206.0,3.964
205.5,3.950
205.0,3.948
204.5,3.962
204.0,3.850
203.5,3.817
203.0,3.894
202.5,3.912
202.0,3.947
201.5,3.903
201.0,3.879
200.5,3.918
200.0,3.964
