"PHT07S63.SPC"
WL/nm,Abs
900.0,0.090
899.5,0.090
899.0,0.090
898.5,0.089
898.0,0.089
897.5,0.089
897.0,0.089
896.5,0.089
896.0,0.089
895.5,0.089
895.0,0.089
894.5,0.089
894.0,0.089
893.5,0.089
893.0,0.089
892.5,0.089
892.0,0.089
891.5,0.088
891.0,0.088
890.5,0.087
890.0,0.087
889.5,0.087
889.0,0.087
888.5,0.087
888.0,0.087
887.5,0.087
887.0,0.088
886.5,0.088
886.0,0.089
885.5,0.089
885.0,0.089
884.5,0.090
884.0,0.090
883.5,0.090
883.0,0.090
882.5,0.091
882.0,0.091
881.5,0.091
881.0,0.091
880.5,0.091
880.0,0.091
879.5,0.091
879.0,0.092
878.5,0.092
878.0,0.092
877.5,0.092
877.0,0.092
876.5,0.092
876.0,0.092
875.5,0.092
875.0,0.091
874.5,0.091
874.0,0.091
873.5,0.091
873.0,0.090
872.5,0.090
872.0,0.090
871.5,0.089
871.0,0.089
870.5,0.088
870.0,0.088
869.5,0.088
869.0,0.087
868.5,0.087
868.0,0.086
867.5,0.086
867.0,0.086
866.5,0.086
866.0,0.085
865.5,0.085
865.0,0.085
864.5,0.084
864.0,0.084
863.5,0.084
863.0,0.084
862.5,0.084
862.0,0.083
861.5,0.083
861.0,0.083
860.5,0.083
860.0,0.083
859.5,0.083
859.0,0.083
858.5,0.083
858.0,0.083
857.5,0.082
857.0,0.082
856.5,0.082
856.0,0.082
855.5,0.082
855.0,0.082
854.5,0.082
854.0,0.082
853.5,0.082
853.0,0.082
852.5,0.082
852.0,0.082
851.5,0.082
851.0,0.081
850.5,0.081
850.0,0.081
849.5,0.081
849.0,0.081
848.5,0.081
848.0,0.081
847.5,0.081
847.0,0.081
846.5,0.081
846.0,0.081
845.5,0.081
845.0,0.081
844.5,0.081
844.0,0.080
843.5,0.080
843.0,0.080
842.5,0.080
842.0,0.080
841.5,0.080
841.0,0.080
840.5,0.080
840.0,0.080
839.5,0.080
839.0,0.080
838.5,0.080
838.0,0.080
837.5,0.080
837.0,0.079
836.5,0.079
836.0,0.079
835.5,0.079
835.0,0.079
834.5,0.079
834.0,0.079
833.5,0.079
833.0,0.079
832.5,0.079
832.0,0.078
831.5,0.078
831.0,0.078
830.5,0.078
830.0,0.077
829.5,0.077
829.0,0.077
828.5,0.076
828.0,0.076
827.5,0.076
827.0,0.076
826.5,0.076
826.0,0.075
825.5,0.075
825.0,0.075
824.5,0.075
824.0,0.074
823.5,0.074
823.0,0.074
822.5,0.074
822.0,0.074
821.5,0.074
821.0,0.074
820.5,0.074
820.0,0.074
819.5,0.073
819.0,0.073
818.5,0.073
818.0,0.073
817.5,0.073
817.0,0.073
816.5,0.073
816.0,0.073
815.5,0.073
815.0,0.073
814.5,0.073
814.0,0.073
813.5,0.073
813.0,0.073
812.5,0.073
812.0,0.073
811.5,0.073
811.0,0.073
810.5,0.073
810.0,0.073
809.5,0.073
809.0,0.073
808.5,0.073
808.0,0.073
807.5,0.073
807.0,0.073
806.5,0.073
806.0,0.073
805.5,0.073
805.0,0.073
804.5,0.073
804.0,0.073
803.5,0.073
803.0,0.073
802.5,0.073
802.0,0.073
801.5,0.073
801.0,0.073
800.5,0.073
800.0,0.073
799.5,0.073
799.0,0.074
798.5,0.074
798.0,0.074
797.5,0.074
797.0,0.074
796.5,0.074
796.0,0.074
795.5,0.074
795.0,0.074
794.5,0.074
794.0,0.074
793.5,0.074
793.0,0.074
792.5,0.074
792.0,0.075
791.5,0.075
791.0,0.075
790.5,0.075
790.0,0.075
789.5,0.075
789.0,0.075
788.5,0.075
788.0,0.075
787.5,0.075
787.0,0.075
786.5,0.075
786.0,0.075
785.5,0.075
785.0,0.075
784.5,0.075
784.0,0.076
783.5,0.076
783.0,0.076
782.5,0.076
782.0,0.076
781.5,0.076
781.0,0.076
780.5,0.076
780.0,0.076
779.5,0.076
779.0,0.076
778.5,0.076
778.0,0.076
777.5,0.076
777.0,0.077
776.5,0.077
776.0,0.077
775.5,0.077
775.0,0.077
774.5,0.077
774.0,0.077
773.5,0.077
773.0,0.077
772.5,0.077
772.0,0.077
771.5,0.077
771.0,0.077
770.5,0.077
770.0,0.077
769.5,0.077
769.0,0.077
768.5,0.077
768.0,0.078
767.5,0.078
767.0,0.078
766.5,0.078
766.0,0.078
765.5,0.078
765.0,0.078
764.5,0.078
764.0,0.078
763.5,0.078
763.0,0.078
762.5,0.078
762.0,0.078
761.5,0.079
761.0,0.078
760.5,0.078
760.0,0.078
759.5,0.079
759.0,0.079
758.5,0.079
758.0,0.079
757.5,0.079
757.0,0.079
756.5,0.079
756.0,0.079
755.5,0.079
755.0,0.079
754.5,0.080
754.0,0.080
753.5,0.080
753.0,0.080
752.5,0.080
752.0,0.080
751.5,0.080
751.0,0.080
750.5,0.081
750.0,0.081
749.5,0.081
749.0,0.081
748.5,0.081
748.0,0.081
747.5,0.081
747.0,0.081
746.5,0.082
746.0,0.082
745.5,0.082
745.0,0.082
744.5,0.082
744.0,0.082
743.5,0.083
743.0,0.083
742.5,0.083
742.0,0.083
741.5,0.083
741.0,0.083
740.5,0.084
740.0,0.084
739.5,0.084
739.0,0.084
738.5,0.084
738.0,0.085
737.5,0.085
737.0,0.085
736.5,0.085
736.0,0.086
735.5,0.086
735.0,0.086
734.5,0.086
734.0,0.086
733.5,0.086
733.0,0.087
732.5,0.087
732.0,0.087
731.5,0.087
731.0,0.087
730.5,0.088
730.0,0.088
729.5,0.088
729.0,0.089
728.5,0.089
728.0,0.089
727.5,0.090
727.0,0.090
726.5,0.091
726.0,0.091
725.5,0.092
725.0,0.092
724.5,0.093
724.0,0.094
723.5,0.094
723.0,0.095
722.5,0.096
722.0,0.097
721.5,0.097
721.0,0.098
720.5,0.099
720.0,0.100
719.5,0.101
719.0,0.102
718.5,0.103
718.0,0.105
717.5,0.106
717.0,0.107
716.5,0.108
716.0,0.109
715.5,0.111
715.0,0.112
714.5,0.114
714.0,0.115
713.5,0.117
713.0,0.119
712.5,0.120
712.0,0.122
711.5,0.124
711.0,0.126
710.5,0.128
710.0,0.130
709.5,0.132
709.0,0.135
708.5,0.138
708.0,0.140
707.5,0.143
707.0,0.146
706.5,0.148
706.0,0.151
705.5,0.154
705.0,0.158
704.5,0.161
704.0,0.164
703.5,0.168
703.0,0.172
702.5,0.176
702.0,0.179
701.5,0.184
701.0,0.188
700.5,0.192
700.0,0.197
699.5,0.201
699.0,0.207
698.5,0.212
698.0,0.217
697.5,0.223
697.0,0.229
696.5,0.235
696.0,0.241
695.5,0.247
695.0,0.254
694.5,0.260
694.0,0.267
693.5,0.275
693.0,0.282
692.5,0.290
692.0,0.298
691.5,0.307
691.0,0.315
690.5,0.324
690.0,0.334
689.5,0.344
689.0,0.354
688.5,0.365
688.0,0.375
687.5,0.386
687.0,0.398
686.5,0.410
686.0,0.423
685.5,0.436
685.0,0.450
684.5,0.463
684.0,0.477
683.5,0.492
683.0,0.507
682.5,0.522
682.0,0.538
681.5,0.554
681.0,0.571
680.5,0.589
680.0,0.607
679.5,0.626
679.0,0.645
678.5,0.665
678.0,0.686
677.5,0.707
677.0,0.728
676.5,0.750
676.0,0.772
675.5,0.794
675.0,0.817
674.5,0.841
674.0,0.866
673.5,0.891
673.0,0.918
672.5,0.945
672.0,0.973
671.5,1.002
671.0,1.033
670.5,1.064
670.0,1.096
669.5,1.128
669.0,1.161
668.5,1.195
668.0,1.229
667.5,1.264
667.0,1.299
666.5,1.335
666.0,1.372
665.5,1.409
665.0,1.447
664.5,1.485
664.0,1.524
663.5,1.562
663.0,1.599
662.5,1.637
662.0,1.676
661.5,1.716
661.0,1.756
660.5,1.795
660.0,1.834
659.5,1.873
659.0,1.912
658.5,1.951
658.0,1.989
657.5,2.025
657.0,2.059
656.5,2.092
656.0,2.122
655.5,2.152
655.0,2.179
654.5,2.206
654.0,2.230
653.5,2.253
653.0,2.275
652.5,2.294
652.0,2.312
651.5,2.328
651.0,2.343
650.5,2.341
650.0,2.327
649.5,2.314
649.0,2.322
648.5,2.329
648.0,2.335
647.5,2.339
647.0,2.342
646.5,2.343
646.0,2.344
645.5,2.344
645.0,2.342
644.5,2.340
644.0,2.337
643.5,2.332
643.0,2.328
642.5,2.323
642.0,2.318
641.5,2.312
641.0,2.307
640.5,2.301
640.0,2.296
639.5,2.291
639.0,2.287
638.5,2.283
638.0,2.280
637.5,2.278
637.0,2.277
636.5,2.276
636.0,2.276
635.5,2.277
635.0,2.278
634.5,2.281
634.0,2.283
633.5,2.285
633.0,2.288
632.5,2.291
632.0,2.293
631.5,2.296
631.0,2.297
630.5,2.299
630.0,2.301
629.5,2.302
629.0,2.302
628.5,2.302
628.0,2.303
627.5,2.303
627.0,2.303
626.5,2.303
626.0,2.302
625.5,2.302
625.0,2.302
624.5,2.301
624.0,2.301
623.5,2.300
623.0,2.299
622.5,2.299
622.0,2.298
621.5,2.297
621.0,2.296
620.5,2.296
620.0,2.295
619.5,2.294
619.0,2.294
618.5,2.293
618.0,2.292
617.5,2.291
617.0,2.290
616.5,2.289
616.0,2.288
615.5,2.287
615.0,2.286
614.5,2.286
614.0,2.285
613.5,2.283
613.0,2.282
612.5,2.281
612.0,2.280
611.5,2.280
611.0,2.278
610.5,2.277
610.0,2.276
609.5,2.275
609.0,2.274
608.5,2.273
608.0,2.272
607.5,2.271
607.0,2.270
606.5,2.269
606.0,2.268
605.5,2.266
605.0,2.265
604.5,2.264
604.0,2.263
603.5,2.262
603.0,2.260
602.5,2.259
602.0,2.258
601.5,2.257
601.0,2.255
600.5,2.255
600.0,2.253
599.5,2.252
599.0,2.251
598.5,2.250
598.0,2.249
597.5,2.247
597.0,2.246
596.5,2.245
596.0,2.243
595.5,2.242
595.0,2.241
594.5,2.239
594.0,2.238
593.5,2.237
593.0,2.236
592.5,2.234
592.0,2.233
591.5,2.232
591.0,2.230
590.5,2.229
590.0,2.227
589.5,2.226
589.0,2.224
588.5,2.223
588.0,2.222
587.5,2.220
587.0,2.219
586.5,2.217
586.0,2.216
585.5,2.214
585.0,2.213
584.5,2.212
584.0,2.210
583.5,2.209
583.0,2.207
582.5,2.206
582.0,2.204
581.5,2.202
581.0,2.201
580.5,2.199
580.0,2.198
579.5,2.196
579.0,2.195
578.5,2.193
578.0,2.191
577.5,2.190
577.0,2.188
576.5,2.186
576.0,2.185
575.5,2.183
575.0,2.181
574.5,2.179
574.0,2.177
573.5,2.175
573.0,2.173
572.5,2.171
572.0,2.169
571.5,2.168
571.0,2.165
570.5,2.164
570.0,2.162
569.5,2.159
569.0,2.157
568.5,2.155
568.0,2.152
567.5,2.150
567.0,2.148
566.5,2.145
566.0,2.143
565.5,2.141
565.0,2.138
564.5,2.136
564.0,2.133
563.5,2.131
563.0,2.128
562.5,2.125
562.0,2.122
561.5,2.119
561.0,2.116
560.5,2.113
560.0,2.110
559.5,2.107
559.0,2.104
558.5,2.100
558.0,2.097
557.5,2.093
557.0,2.090
556.5,2.086
556.0,2.082
555.5,2.078
555.0,2.074
554.5,2.070
554.0,2.066
553.5,2.062
553.0,2.058
552.5,2.054
552.0,2.049
551.5,2.045
551.0,2.040
550.5,2.035
550.0,2.031
549.5,2.026
549.0,2.020
548.5,2.015
548.0,2.009
547.5,2.004
547.0,1.999
546.5,1.994
546.0,1.988
545.5,1.983
545.0,1.978
544.5,1.972
544.0,1.967
543.5,1.961
543.0,1.955
542.5,1.949
542.0,1.943
541.5,1.937
541.0,1.931
540.5,1.925
540.0,1.919
539.5,1.913
539.0,1.907
538.5,1.900
538.0,1.894
537.5,1.888
537.0,1.881
536.5,1.949
536.0,2.130
535.5,2.310
535.0,2.321
534.5,2.312
534.0,2.303
533.5,2.296
533.0,2.288
532.5,2.282
532.0,2.276
531.5,2.269
531.0,2.263
530.5,2.257
530.0,2.253
529.5,2.256
529.0,2.278
528.5,2.300
528.0,2.300
527.5,2.296
527.0,2.292
526.5,2.289
526.0,2.286
525.5,2.283
525.0,2.280
524.5,2.278
524.0,2.277
523.5,2.275
523.0,2.273
522.5,2.272
522.0,2.271
521.5,2.272
521.0,2.271
520.5,2.271
520.0,2.272
519.5,2.273
519.0,2.274
518.5,2.276
518.0,2.278
517.5,2.280
517.0,2.282
516.5,2.285
516.0,2.287
515.5,2.291
515.0,2.295
514.5,2.298
514.0,2.302
513.5,2.306
513.0,2.311
512.5,2.316
512.0,2.321
511.5,2.326
511.0,2.331
510.5,2.338
510.0,2.344
509.5,2.351
509.0,2.357
508.5,2.363
508.0,2.370
507.5,2.377
507.0,2.385
506.5,2.393
506.0,2.401
505.5,2.409
505.0,2.415
504.5,2.425
504.0,2.434
503.5,2.441
503.0,2.450
502.5,2.458
502.0,2.468
501.5,2.477
501.0,2.486
500.5,2.493
500.0,2.503
499.5,2.513
499.0,2.523
498.5,2.532
498.0,2.542
497.5,2.550
497.0,2.560
496.5,2.569
496.0,2.579
495.5,2.589
495.0,2.598
494.5,2.607
494.0,2.617
493.5,2.628
493.0,2.639
492.5,2.648
492.0,2.658
491.5,2.665
491.0,2.676
490.5,2.685
490.0,2.697
489.5,2.706
489.0,2.713
488.5,2.723
488.0,2.732
487.5,2.742
487.0,2.754
486.5,2.763
486.0,2.774
485.5,2.781
485.0,2.791
484.5,2.796
484.0,2.803
483.5,2.814
483.0,2.823
482.5,2.834
482.0,2.842
481.5,2.850
481.0,2.855
480.5,2.859
480.0,2.869
479.5,2.875
479.0,2.883
478.5,2.888
478.0,2.891
477.5,2.897
477.0,2.900
476.5,2.907
476.0,2.913
475.5,2.915
475.0,2.924
474.5,2.925
474.0,2.929
473.5,2.929
473.0,2.931
472.5,2.934
472.0,2.937
471.5,2.943
471.0,2.941
470.5,2.944
470.0,2.949
469.5,2.953
469.0,2.958
468.5,2.958
468.0,2.959
467.5,2.961
467.0,2.957
466.5,2.961
466.0,2.960
465.5,2.962
465.0,2.963
464.5,2.960
464.0,2.962
463.5,2.963
463.0,2.971
462.5,2.965
462.0,2.953
461.5,2.948
461.0,2.941
460.5,2.933
460.0,2.931
459.5,2.927
459.0,2.927
458.5,2.922
458.0,2.919
457.5,2.916
457.0,2.914
456.5,2.916
456.0,2.912
455.5,2.916
455.0,2.916
454.5,2.915
454.0,2.916
453.5,2.914
453.0,2.918
452.5,2.919
452.0,2.922
451.5,2.927
451.0,2.932
450.5,2.937
450.0,2.935
449.5,2.943
449.0,2.952
448.5,2.955
448.0,2.957
447.5,2.959
447.0,2.966
446.5,2.969
446.0,2.974
445.5,2.980
445.0,2.978
444.5,2.986
444.0,2.989
443.5,2.992
443.0,3.000
442.5,2.999
442.0,3.007
441.5,3.003
441.0,3.004
440.5,3.006
440.0,3.001
439.5,3.005
439.0,3.002
438.5,3.000
438.0,2.993
437.5,2.985
437.0,2.985
436.5,2.981
436.0,2.981
435.5,2.976
435.0,2.968
434.5,2.961
434.0,2.954
433.5,2.953
433.0,2.943
432.5,2.939
432.0,2.934
431.5,2.927
431.0,2.923
430.5,2.915
430.0,2.914
429.5,2.910
429.0,2.907
428.5,2.903
428.0,2.896
427.5,2.894
427.0,2.883
426.5,2.879
426.0,2.873
425.5,2.870
425.0,2.863
424.5,2.859
424.0,2.858
423.5,2.850
423.0,2.851
422.5,2.844
422.0,2.838
421.5,2.834
421.0,2.822
420.5,2.820
420.0,2.813
419.5,2.812
419.0,2.806
418.5,2.796
418.0,2.784
417.5,2.776
417.0,2.778
416.5,2.876
416.0,3.165
415.5,3.429
415.0,3.438
414.5,3.415
414.0,3.378
413.5,3.393
413.0,3.414
412.5,3.428
412.0,3.407
411.5,3.401
411.0,3.419
410.5,3.404
410.0,3.434
409.5,3.401
409.0,3.404
408.5,3.424
408.0,3.468
407.5,3.461
407.0,3.416
406.5,3.429
406.0,3.422
405.5,3.431
405.0,3.425
404.5,3.405
404.0,3.414
403.5,3.387
403.0,3.394
402.5,3.392
402.0,3.363
401.5,3.364
401.0,3.339
400.5,3.378
400.0,3.376
399.5,3.379
399.0,3.363
398.5,3.345
398.0,3.329
397.5,3.316
397.0,3.353
396.5,3.358
396.0,3.349
395.5,3.304
395.0,3.287
394.5,3.343
394.0,3.315
393.5,3.316
393.0,3.287
392.5,3.278
392.0,3.306
391.5,3.247
391.0,3.220
390.5,3.188
390.0,3.177
389.5,3.198
389.0,3.188
388.5,3.191
388.0,3.173
387.5,3.139
387.0,3.137
386.5,3.084
386.0,3.079
385.5,3.046
385.0,3.069
384.5,3.045
384.0,3.009
383.5,3.039
383.0,3.010
382.5,2.990
382.0,2.964
381.5,2.933
381.0,2.949
380.5,2.944
380.0,2.945
379.5,2.922
379.0,2.914
378.5,2.887
378.0,2.858
377.5,2.853
377.0,2.822
376.5,2.814
376.0,2.778
375.5,2.757
375.0,2.742
374.5,2.702
374.0,2.712
373.5,2.692
373.0,2.670
372.5,2.670
372.0,2.640
371.5,2.627
371.0,2.606
370.5,2.583
370.0,2.553
369.5,2.535
369.0,2.549
368.5,2.537
368.0,2.528
367.5,2.507
367.0,2.498
366.5,2.482
366.0,2.458
365.5,2.455
365.0,2.459
364.5,2.456
364.0,2.432
363.5,2.406
363.0,2.399
362.5,2.383
362.0,2.368
361.5,2.362
361.0,2.348
360.5,2.352
360.0,2.343
359.5,2.322
359.0,2.300
358.5,2.288
358.0,2.277
357.5,2.262
357.0,2.257
356.5,2.250
356.0,2.245
355.5,2.234
355.0,2.217
354.5,2.210
354.0,2.196
353.5,2.187
353.0,2.175
352.5,2.165
352.0,2.158
351.5,2.147
351.0,2.141
350.5,2.136
350.0,2.126
349.5,2.115
349.0,2.097
348.5,2.096
348.0,2.088
347.5,2.085
347.0,2.075
346.5,2.062
346.0,2.053
345.5,2.045
345.0,2.041
344.5,2.033
344.0,2.033
343.5,2.029
343.0,2.025
342.5,2.018
342.0,2.011
341.5,2.010
341.0,2.009
340.5,1.995
340.0,1.982
339.5,1.974
339.0,1.974
338.5,1.978
338.0,1.986
337.5,1.990
337.0,1.997
336.5,1.994
336.0,2.003
335.5,2.009
335.0,2.014
334.5,2.032
334.0,2.043
333.5,2.056
333.0,2.067
332.5,2.079
332.0,2.105
331.5,2.121
331.0,2.141
330.5,2.153
330.0,2.177
329.5,2.198
329.0,2.222
328.5,2.256
328.0,2.287
327.5,2.311
327.0,2.330
326.5,2.366
326.0,2.392
325.5,2.427
325.0,2.474
324.5,2.499
324.0,2.527
323.5,2.545
323.0,2.607
322.5,2.678
322.0,2.699
321.5,2.755
321.0,2.778
320.5,2.849
320.0,2.895
319.5,2.932
319.0,2.976
318.5,2.981
318.0,3.042
317.5,3.087
317.0,3.082
316.5,3.183
316.0,3.240
315.5,3.333
315.0,3.380
314.5,3.410
314.0,3.427
313.5,3.385
313.0,3.468
312.5,3.403
312.0,3.413
311.5,3.385
311.0,3.501
310.5,3.549
310.0,3.473
309.5,3.451
309.0,3.384
308.5,3.518
308.0,3.499
307.5,3.522
307.0,3.661
306.5,3.561
306.0,3.373
305.5,3.309
305.0,3.217
304.5,3.222
304.0,3.180
303.5,3.203
303.0,3.178
302.5,3.211
302.0,3.255
301.5,3.213
301.0,3.228
300.5,3.196
300.0,3.278
299.5,3.313
299.0,3.314
298.5,3.371
298.0,3.323
297.5,3.346
297.0,3.372
296.5,3.433
296.0,3.451
295.5,3.548
295.0,3.690
294.5,3.728
294.0,3.835
293.5,3.791
293.0,3.759
292.5,3.742
292.0,3.732
291.5,3.743
291.0,3.741
290.5,3.769
290.0,3.800
289.5,3.790
289.0,3.821
288.5,3.802
288.0,3.879
287.5,3.830
287.0,3.768
286.5,3.841
286.0,3.761
285.5,3.746
285.0,3.804
284.5,3.919
284.0,3.834
283.5,3.783
283.0,3.872
282.5,3.848
282.0,3.876
281.5,3.784
281.0,3.877
280.5,3.926
280.0,3.854
279.5,3.905
279.0,3.848
278.5,3.885
278.0,3.873
277.5,3.912
277.0,3.902
276.5,3.845
276.0,3.883
275.5,3.895
275.0,3.872
274.5,3.839
274.0,3.839
273.5,3.774
273.0,3.856
272.5,3.971
272.0,3.890
271.5,3.892
271.0,3.838
270.5,3.924
270.0,3.970
269.5,3.917
269.0,3.930
268.5,3.836
268.0,3.881
267.5,3.939
267.0,3.945
266.5,3.934
266.0,3.909
265.5,3.942
265.0,3.909
264.5,3.946
264.0,3.914
263.5,3.958
263.0,3.980
262.5,3.978
262.0,3.978
261.5,3.940
261.0,3.910
260.5,3.901
260.0,3.934
259.5,3.961
259.0,3.912
258.5,3.931
258.0,3.928
257.5,3.970
257.0,3.951
256.5,3.959
256.0,3.975
255.5,3.968
255.0,3.972
254.5,4.000
254.0,4.000
253.5,3.997
253.0,3.955
252.5,3.945
252.0,3.938
251.5,3.980
251.0,3.970
250.5,3.970
250.0,3.985
249.5,4.000
249.0,4.000
248.5,3.976
248.0,3.976
247.5,3.976
247.0,4.000
246.5,3.991
246.0,3.990
245.5,3.991
245.0,3.983
244.5,3.984
244.0,4.000
243.5,3.991
243.0,3.982
242.5,3.982
242.0,4.000
241.5,3.999
241.0,3.997
240.5,3.997
240.0,4.000
239.5,4.000
239.0,3.994
238.5,3.994
238.0,3.970
237.5,3.970
237.0,3.953
236.5,3.969
236.0,3.986
235.5,3.995
235.0,4.000
234.5,3.996
234.0,3.987
233.5,3.988
233.0,3.991
232.5,3.949
232.0,3.944
231.5,3.985
231.0,3.995
230.5,3.990
230.0,3.971
229.5,3.981
229.0,3.966
228.5,3.985
228.0,3.990
227.5,3.984
227.0,3.989
226.5,3.994
226.0,4.000
225.5,3.999
225.0,3.983
224.5,3.974
224.0,3.957
223.5,3.982
223.0,3.967
222.5,3.973
222.0,3.973
221.5,3.978
221.0,3.978
220.5,3.968
220.0,3.968
219.5,3.942
219.0,3.968
218.5,3.983
218.0,3.977
217.5,3.958
217.0,3.964
216.5,3.964
216.0,3.954
215.5,3.979
215.0,3.993
214.5,3.993
214.0,3.957
213.5,3.964
213.0,3.990
212.5,3.987
212.0,3.991
211.5,3.993
211.0,3.991
210.5,3.966
210.0,3.966
209.5,3.969
209.0,3.983
208.5,3.969
208.0,3.947
207.5,3.967
207.0,3.951
206.5,3.951
206.0,3.951
205.5,3.994
205.0,3.987
204.5,3.949
204.0,3.961
203.5,3.972
203.0,3.987
202.5,3.919
202.0,3.910
201.5,3.858
201.0,3.886
200.5,3.987
200.0,3.987
